age(ka),d18OcarbVPDB
14.613,-7.77
14.617,-7.77
14.622,-7.64
14.626,-8.58
14.631,-9.14
14.635,-9.35
14.64,-9.71
14.644,-10.05
14.649,-10.49
14.653,-10.85
14.658,-11.16
14.662,-11.18
14.667,-11.37
14.671,-11.42
14.676,-11.5
14.68,-11.52
14.685,-11.55
14.69,-11.53
14.694,-11.38
14.699,-11.52
14.703,-11.39
14.708,-11.37
14.712,-11.31
14.717,-11.26
14.721,-11.27
14.726,-11.25
14.735,-11.44
14.739,-11.51
14.744,-11.6
14.748,-11.63
14.753,-11.64
14.757,-11.82
14.762,-11.85
14.766,-11.78
14.771,-11.73
14.776,-11.73
14.78,-11.66
14.785,-11.65
14.789,-11.54
14.794,-11.47
14.798,-11.6
14.803,-11.69
14.807,-11.54
14.812,-11.44
14.816,-11.39
14.821,-11.49
14.825,-11.57
14.83,-11.6
14.834,-11.57
14.839,-11.45
14.843,-11.54
14.848,-11.57
14.852,-11.53
14.857,-11.69
14.86,-11.83
14.864,-11.73
14.867,-11.65
14.87,-11.66
14.874,-11.75
14.877,-11.69
14.88,-11.76
14.884,-11.72
14.887,-11.67
14.89,-11.74
14.894,-11.83
14.901,-11.73
14.904,-11.72
14.907,-11.75
14.911,-11.76
14.914,-11.76
14.917,-11.67
14.921,-11.68
14.924,-11.66
14.927,-11.75
14.931,-11.81
14.934,-11.89
14.937,-11.81
14.941,-11.81
14.944,-11.67
14.947,-11.65
14.951,-11.69
14.954,-11.7
14.957,-11.68
14.961,-11.64
14.964,-11.65
14.967,-11.78
14.971,-11.81
14.974,-11.77
14.978,-11.65
14.981,-11.69
14.984,-11.64
14.988,-11.62
14.991,-11.79
14.994,-11.84
14.998,-11.71
15.001,-11.68
15.004,-11.69
15.008,-11.78
15.011,-11.69
15.014,-11.65
15.018,-11.67
15.021,-11.6
15.024,-11.73
15.028,-11.89
15.031,-11.9
15.034,-11.95
15.038,-11.9
15.041,-11.71
15.045,-11.56
15.048,-11.63
15.051,-11.78
15.055,-11.88
15.058,-11.75
15.061,-11.78
15.065,-11.82
15.068,-11.9
15.071,-11.92
15.075,-11.98
15.078,-11.91
15.081,-11.81
15.085,-11.68
15.088,-11.81
15.091,-11.79
15.095,-11.91
15.098,-11.88
15.101,-11.9
15.105,-11.84
15.108,-11.93
15.111,-11.88
15.115,-11.83
15.118,-11.8
15.122,-11.81
15.125,-11.85
15.128,-11.97
15.132,-12.1
15.135,-12.11
15.138,-12.1
15.142,-11.92
15.145,-11.9
15.148,-11.85
15.152,-11.9
15.155,-11.74
15.16,-11.77
15.164,-11.92
15.169,-11.92
15.174,-11.96
15.178,-12.14
15.183,-12.02
15.188,-12.11
15.193,-12.1
15.197,-12.09
15.202,-12.01
15.207,-12.08
15.211,-12.11
15.216,-12.15
15.221,-12.11
15.225,-12.17
15.23,-12.16
15.235,-12.1
15.239,-12.22
15.244,-12.22
15.249,-12.28
15.253,-12.24
15.258,-12.33
15.263,-12.34
15.268,-12.36
15.272,-12.34
15.277,-12.33
15.282,-12.39
15.286,-12.36
15.291,-12.41
15.297,-12.36
15.303,-12.26
15.309,-12.26
15.314,-12.29
15.32,-12.21
15.326,-12.21
15.332,-12.15
15.338,-12.09
15.384,-12.14
15.39,-12.16
15.396,-12.28
15.402,-12.24
15.408,-12.19
15.414,-12.23
15.42,-12.32
15.425,-12.33
15.431,-12.15
15.437,-12.18
15.443,-12.25
15.449,-12.19
15.455,-12.15
15.46,-12.18
15.466,-12.17
15.472,-12.21
15.478,-12.26
15.484,-12.23
15.49,-12.16
15.495,-12.17
15.501,-12.23
15.507,-12.4
15.513,-12.32
15.525,-12.41
15.531,-12.38
15.536,-12.39
15.542,-12.33
15.548,-12.34
15.554,-12.26
15.56,-12.3
15.566,-12.41
15.571,-12.31
15.577,-12.19
15.583,-12.17
15.589,-12.21
15.595,-12.25
15.601,-12.25
15.606,-12.28
15.612,-12.28
15.618,-12.29
15.624,-12.29
15.63,-12.2
15.636,-12.24
15.642,-12.24
15.647,-12.24
15.653,-12.34
15.659,-12.45
15.665,-12.43
15.671,-12.49
15.677,-12.46
15.682,-12.53
15.688,-12.46
15.694,-12.49
15.7,-12.37
15.706,-12.36
15.712,-12.3
15.718,-12.25
15.723,-12.16
15.729,-12.29
15.735,-12.3
15.741,-12.46
15.747,-12.42
15.753,-12.4
15.758,-12.19
15.764,-12.12
15.77,-12.14
15.776,-12.26
15.782,-12.1
15.788,-12.05
15.793,-11.97
15.799,-12.0
15.805,-12.05
15.811,-12.07
15.817,-12.14
15.823,-12.04
15.829,-11.97
15.834,-12.14
15.84,-12.0
15.846,-11.97
15.852,-12.2
15.858,-12.06
15.869,-12.13
15.875,-12.2
15.881,-12.25
15.887,-12.23
15.893,-12.28
15.899,-12.26
15.904,-12.31
15.91,-12.39
15.916,-12.34
15.922,-12.3
15.928,-12.29
15.934,-12.25
15.94,-12.33
15.945,-12.33
15.951,-12.28
15.957,-12.32
15.963,-12.28
15.969,-12.21
15.975,-12.2
15.98,-12.33
15.986,-12.35
15.992,-12.41
15.998,-12.43
16.004,-12.45
16.01,-12.39
16.015,-12.48
16.021,-12.5
16.027,-12.47
16.033,-12.45
16.04,-12.43
16.047,-12.34
16.054,-12.24
16.061,-12.28
16.068,-12.31
16.075,-12.26
16.082,-12.12
16.089,-12.12
16.096,-11.92
16.103,-12.03
16.11,-11.99
16.117,-12.02
16.124,-12.11
16.131,-12.11
16.139,-12.16
16.146,-12.15
16.153,-12.25
16.16,-12.33
16.167,-12.26
16.174,-12.28
16.181,-12.16
16.188,-12.13
16.195,-12.0
16.202,-12.06
16.209,-12.0
16.216,-12.07
16.223,-12.06
16.23,-12.08
16.237,-12.16
16.244,-12.17
16.251,-12.13
16.258,-12.21
16.265,-12.3
16.272,-12.12
16.279,-12.17
16.286,-12.17
16.293,-12.17
16.3,-12.27
16.307,-12.13
16.314,-12.14
16.321,-12.07
16.328,-11.91
16.335,-12.13
16.342,-11.93
16.349,-12.05
16.357,-12.19
16.364,-12.12
16.371,-12.1
16.378,-11.99
16.385,-11.75
16.392,-11.95
16.399,-11.93
16.406,-12.01
16.413,-12.11
16.42,-12.08
16.427,-11.95
16.434,-11.92
16.441,-12.03
16.448,-12.05
16.455,-12.08
16.462,-11.97
16.469,-11.89
16.476,-11.94
16.483,-12.02
16.49,-12.02
16.497,-12.04
16.504,-12.03
16.511,-12.01
16.518,-12.1
16.525,-12.13
16.532,-12.21
16.539,-12.24
16.546,-12.2
16.553,-12.06
16.561,-12.19
16.568,-12.09
16.575,-12.36
16.582,-12.08
16.589,-12.18
16.596,-11.99
16.603,-12.04
16.61,-12.14
16.617,-12.0
16.624,-11.91
16.631,-12.0
16.638,-11.87
16.645,-11.95
16.652,-11.92
16.659,-11.94
16.666,-11.99
16.673,-11.97
16.68,-12.11
16.687,-12.2
16.694,-12.2
16.701,-12.16
16.708,-12.07
16.715,-12.02
16.722,-12.02
16.729,-12.16
16.736,-12.06
16.743,-12.0
16.75,-12.1
16.757,-11.81
16.771,-11.88
16.779,-11.96
16.786,-12.02
16.793,-12.13
16.8,-11.96
16.807,-12.01
16.814,-12.0
16.821,-12.02
16.828,-11.96
16.835,-11.91
16.842,-11.84
16.849,-12.01
16.856,-12.09
16.863,-11.99
16.87,-12.03
16.877,-12.02
16.884,-12.02
16.891,-12.07
16.898,-12.04
16.905,-11.97
16.912,-12.09
16.919,-12.16
16.926,-12.18
16.933,-12.07
16.94,-11.94
16.947,-12.11
16.954,-11.97
16.961,-12.11
16.968,-12.17
16.975,-12.12
16.983,-12.09
16.99,-12.1
16.997,-12.35
17.004,-12.27
17.011,-12.27
17.018,-12.17
17.025,-12.08
17.032,-12.05
17.039,-12.03
17.046,-12.06
17.053,-12.08
17.06,-11.92
17.067,-11.85
17.074,-11.96
17.081,-12.06
17.088,-12.2
17.095,-12.21
17.101,-12.2
17.108,-12.09
17.114,-12.04
17.121,-12.09
17.127,-12.15
17.134,-11.99
17.14,-11.86
17.14,-11.85
17.143,-11.85
17.146,-11.95
17.147,-11.96
17.149,-11.93
17.152,-11.9
17.153,-11.89
17.155,-11.89
17.158,-11.91
17.16,-11.94
17.161,-11.94
17.163,-11.8
17.166,-11.89
17.167,-11.9
17.169,-11.91
17.172,-11.91
17.173,-11.92
17.175,-11.94
17.178,-11.98
17.18,-11.97
17.181,-11.96
17.183,-11.94
17.186,-11.98
17.186,-11.98
17.189,-11.93
17.192,-11.98
17.193,-12.0
17.195,-12.06
17.198,-12.06
17.199,-12.08
17.201,-12.1
17.204,-12.13
17.206,-12.16
17.206,-12.17
17.209,-12.15
17.212,-12.13
17.212,-12.13
17.215,-12.14
17.218,-12.17
17.219,-12.18
17.221,-12.19
17.224,-12.22
17.226,-12.22
17.226,-12.2
17.229,-12.09
17.232,-12.05
17.232,-12.05
17.235,-12.1
17.238,-12.07
17.239,-12.06
17.241,-12.05
17.244,-12.03
17.245,-11.98
17.247,-11.96
17.249,-11.95
17.252,-12.04
17.252,-12.05
17.258,-11.95
17.258,-11.94
17.261,-11.9
17.264,-11.89
17.265,-11.88
17.267,-11.86
17.269,-11.93
17.271,-11.93
17.272,-11.92
17.275,-11.85
17.278,-11.85
17.278,-11.85
17.281,-11.89
17.284,-11.91
17.284,-11.92
17.287,-11.95
17.29,-11.92
17.291,-11.94
17.292,-11.95
17.295,-11.94
17.298,-11.87
17.298,-11.86
17.301,-11.84
17.304,-11.84
17.304,-11.84
17.307,-11.85
17.31,-11.86
17.311,-11.84
17.312,-11.82
17.315,-11.81
17.317,-11.85
17.318,-11.86
17.321,-11.86
17.324,-11.84
17.324,-11.84
17.327,-11.81
17.33,-11.82
17.33,-11.82
17.333,-11.82
17.335,-11.82
17.337,-11.84
17.338,-11.86
17.341,-11.88
17.343,-11.91
17.344,-11.91
17.347,-11.9
17.35,-11.89
17.35,-11.9
17.353,-11.93
17.355,-11.85
17.357,-11.85
17.358,-11.87
17.361,-11.86
17.363,-11.84
17.364,-11.84
17.367,-11.88
17.37,-11.89
17.37,-11.89
17.373,-11.89
17.376,-11.88
17.376,-11.89
17.378,-11.94
17.381,-12.0
17.383,-12.0
17.384,-11.99
17.387,-11.93
17.389,-11.85
17.39,-11.83
17.393,-11.8
17.396,-11.77
17.396,-11.78
17.398,-11.81
17.401,-11.8
17.402,-11.78
17.404,-11.75
17.407,-11.76
17.409,-11.78
17.41,-11.8
17.413,-11.88
17.415,-11.96
17.416,-11.96
17.419,-12.0
17.421,-12.02
17.422,-12.02
17.424,-12.03
17.427,-12.04
17.429,-12.0
17.43,-11.95
17.433,-11.94
17.435,-11.93
17.436,-11.93
17.439,-11.9
17.441,-11.94
17.442,-11.94
17.444,-11.91
17.447,-11.84
17.448,-11.84
17.45,-11.88
17.453,-11.87
17.455,-11.88
17.456,-11.89
17.459,-11.91
17.461,-11.88
17.462,-11.88
17.464,-11.84
17.467,-11.86
17.468,-11.86
17.47,-11.85
17.473,-11.88
17.474,-11.91
17.476,-11.95
17.479,-12.02
17.481,-12.0
17.482,-11.99
17.485,-11.98
17.487,-11.93
17.488,-11.92
17.49,-11.88
17.493,-11.89
17.494,-11.88
17.496,-11.84
17.499,-11.81
17.501,-11.82
17.502,-11.84
17.505,-11.89
17.507,-11.93
17.507,-11.93
17.51,-11.93
17.513,-11.89
17.514,-11.88
17.516,-11.86
17.519,-11.89
17.52,-11.9
17.522,-11.92
17.525,-11.97
17.527,-11.94
17.528,-11.92
17.53,-11.97
17.533,-12.01
17.533,-12.02
17.536,-12.03
17.539,-12.01
17.54,-12.0
17.542,-11.97
17.545,-11.89
17.546,-11.9
17.548,-11.93
17.55,-12.05
17.553,-12.03
17.553,-12.02
17.556,-12.02
17.559,-12.04
17.56,-12.04
17.562,-12.06
17.565,-12.1
17.566,-12.09
17.568,-12.08
17.571,-12.07
17.573,-12.07
17.573,-12.06
17.576,-11.99
17.579,-12.04
17.579,-12.05
17.582,-12.08
17.585,-12.12
17.586,-12.12
17.588,-12.11
17.591,-12.11
17.592,-12.1
17.593,-12.1
17.596,-12.18
17.599,-12.17
17.599,-12.17
17.602,-12.17
17.605,-12.18
17.605,-12.19
17.608,-12.22
17.611,-12.23
17.612,-12.21
17.612,-12.21
17.613,-12.21
17.614,-12.2
17.616,-12.18
17.617,-12.12
17.618,-12.05
17.619,-12.02
17.619,-12.05
17.62,-12.1
17.622,-12.07
17.623,-12.07
17.624,-12.11
17.625,-12.13
17.625,-12.14
17.627,-12.16
17.628,-12.1
17.629,-12.08
17.63,-12.06
17.631,-12.05
17.632,-12.05
17.633,-12.11
17.634,-12.14
17.635,-12.16
17.636,-12.16
17.638,-12.14
17.638,-12.15
17.639,-12.16
17.64,-12.16
17.641,-12.16
17.642,-12.15
17.644,-12.16
17.645,-12.17
17.645,-12.17
17.646,-12.16
17.647,-12.14
17.649,-12.19
17.65,-12.17
17.651,-12.17
17.651,-12.17
17.652,-12.16
17.653,-12.15
17.655,-12.13
17.656,-12.12
17.657,-12.14
17.658,-12.14
17.658,-12.12
17.66,-12.08
17.661,-12.07
17.662,-12.08
17.663,-12.09
17.664,-12.08
17.665,-12.08
17.666,-12.12
17.667,-12.14
17.668,-12.13
17.669,-12.13
17.671,-12.2
17.671,-12.2
17.672,-12.19
17.673,-12.16
17.674,-12.13
17.676,-12.15
17.677,-12.09
17.677,-12.07
17.678,-12.06
17.679,-12.08
17.68,-12.09
17.682,-12.06
17.683,-12.08
17.684,-12.09
17.684,-12.09
17.685,-12.11
17.687,-12.19
17.688,-12.15
17.689,-12.13
17.69,-12.12
17.691,-12.12
17.691,-12.13
17.693,-12.04
17.694,-12.05
17.695,-12.03
17.696,-12.0
17.697,-11.99
17.698,-11.99
17.699,-11.98
17.7,-11.96
17.701,-11.96
17.702,-11.96
17.704,-11.97
17.704,-11.97
17.705,-12.03
17.706,-12.06
17.707,-12.05
17.709,-12.0
17.71,-12.01
17.71,-12.02
17.711,-12.04
17.712,-12.06
17.713,-12.07
17.715,-12.02
17.716,-12.01
17.717,-12.0
17.717,-12.0
17.718,-11.99
17.72,-11.97
17.721,-11.99
17.722,-11.99
17.723,-11.99
17.723,-11.99
17.724,-11.97
17.726,-11.98
17.727,-11.95
17.728,-11.93
17.729,-11.93
17.73,-11.93
17.731,-11.93
17.732,-11.89
17.733,-11.87
17.736,-11.86
17.742,-11.91
17.743,-11.91
17.751,-11.98
17.752,-11.99
17.759,-11.95
17.761,-11.95
17.767,-11.95
17.77,-11.97
17.775,-12.03
17.78,-12.02
17.783,-12.0
17.789,-11.95
17.791,-11.94
17.798,-11.96
17.799,-11.96
17.807,-12.03
17.808,-12.03
17.815,-11.99
17.817,-11.99
17.823,-12.0
17.826,-11.96
17.831,-11.92
17.836,-11.92
17.838,-11.9
17.845,-11.85
17.846,-11.85
17.854,-11.91
17.854,-11.91
17.862,-11.9
17.864,-11.89
17.87,-11.84
17.873,-11.85
17.878,-11.83
17.882,-11.81
17.886,-11.82
17.892,-11.86
17.894,-11.87
17.901,-11.87
17.902,-11.85
17.91,-11.72
17.91,-11.72
17.918,-11.7
17.919,-11.73
17.926,-11.62
17.934,-11.55
17.942,-11.47
17.95,-11.55
17.958,-11.62
17.966,-11.64
17.974,-11.55
17.982,-11.68
17.99,-11.64
17.998,-11.61
18.006,-11.52
18.014,-11.59
18.022,-11.61
18.03,-11.54
18.038,-11.48
18.045,-11.55
18.053,-11.54
18.061,-11.64
18.069,-11.6
18.077,-11.78
18.085,-11.61
18.093,-11.54
18.101,-11.63
18.109,-11.55
18.117,-11.39
18.125,-11.51
18.133,-11.62
18.141,-11.71
18.146,-11.62
18.152,-11.62
18.157,-11.63
18.163,-11.7
18.169,-11.68
18.174,-11.64
18.185,-11.71
18.19,-11.59
18.196,-11.62
18.201,-11.44
18.207,-11.44
18.213,-11.41
18.218,-11.39
18.224,-11.45
18.229,-11.36
18.235,-11.59
18.24,-11.66
18.245,-11.56
18.251,-11.74
18.257,-11.87
18.262,-11.8
18.268,-11.7
18.273,-11.81
18.279,-11.93
18.284,-11.89
18.29,-12.01
18.295,-11.84
18.3,-11.87
18.306,-11.95
18.312,-11.86
18.317,-11.97
18.323,-11.98
18.328,-11.96
18.334,-11.8
18.339,-11.88
18.345,-11.87
18.35,-11.88
18.355,-12.04
18.361,-11.97
18.367,-11.88
18.372,-11.99
18.378,-11.95
18.383,-11.92
18.389,-11.91
18.394,-12.07
18.399,-12.06
18.405,-11.85
18.416,-11.84
18.427,-11.73
18.433,-11.63
18.438,-11.7
18.443,-11.72
18.449,-11.68
18.454,-11.71
18.46,-11.67
18.466,-11.77
18.471,-11.63
18.482,-11.59
18.488,-11.37
18.493,-11.56
18.504,-11.5
18.51,-11.59
18.515,-11.41
18.521,-11.74
18.526,-11.98
18.532,-11.93
18.537,-11.98
18.543,-11.96
18.548,-11.91
18.553,-11.94
18.559,-11.94
18.565,-11.84
18.57,-11.92
18.581,-12.08
18.587,-12.04
18.592,-11.94
18.598,-11.96
18.603,-11.98
18.608,-11.93
18.614,-12.03
18.62,-12.02
18.625,-12.0
18.631,-11.92
18.636,-12.07
18.64,-12.06
18.644,-12.03
18.649,-12.01
18.653,-12.02
18.657,-12.06
18.661,-12.14
18.665,-12.26
18.669,-12.04
18.674,-12.01
18.678,-11.96
18.682,-12.0
18.686,-12.03
18.69,-11.95
18.694,-11.98
18.699,-11.99
18.703,-11.99
18.707,-11.87
18.711,-11.76
18.715,-11.69
18.72,-11.82
18.724,-11.83
18.728,-11.92
18.732,-11.87
18.736,-12.08
18.74,-12.15
18.745,-12.03
18.749,-12.01
18.753,-12.01
18.757,-12.0
18.761,-12.06
18.765,-12.1
18.77,-12.06
18.774,-12.06
18.778,-11.99
18.782,-11.94
18.786,-11.78
18.79,-11.8
18.795,-11.8
18.799,-11.87
18.803,-11.89
18.807,-11.9
18.811,-11.93
18.816,-11.93
18.82,-11.96
18.824,-12.01
18.828,-11.9
18.832,-11.99
18.836,-11.76
18.841,-11.9
18.845,-12.08
18.849,-12.0
18.853,-12.05
18.857,-12.09
18.861,-12.1
18.866,-12.17
18.87,-12.2
18.874,-12.12
18.878,-12.04
18.882,-11.99
18.887,-12.07
18.891,-12.08
18.895,-12.0
18.899,-11.97
18.903,-11.92
18.907,-11.85
18.912,-11.67
18.916,-11.64
18.92,-11.73
18.924,-11.77
18.928,-11.87
18.932,-11.84
18.937,-11.89
18.941,-11.81
18.945,-11.7
18.949,-11.73
18.953,-11.64
18.957,-11.7
18.962,-11.7
18.966,-11.93
18.97,-11.79
18.974,-11.72
18.978,-11.69
18.983,-11.69
18.987,-11.77
18.991,-11.8
18.995,-11.88
18.999,-11.84
19.003,-11.72
19.008,-11.99
19.012,-12.03
19.02,-11.8
19.024,-11.95
19.028,-11.88
19.033,-11.78
19.037,-11.82
19.041,-11.69
19.046,-11.81
19.052,-11.74
19.057,-11.86
19.063,-11.84
19.068,-11.81
19.074,-11.78
19.079,-12.01
19.106,-12.0
19.112,-12.13
19.117,-11.92
19.128,-12.11
19.134,-12.18
19.139,-12.36
19.144,-12.38
19.15,-12.34
19.155,-12.31
19.161,-12.31
19.166,-12.25
19.172,-12.29
19.177,-12.13
19.183,-12.19
19.188,-12.18
19.193,-12.13
19.199,-12.22
19.204,-12.36
19.21,-12.52
19.215,-12.54
19.221,-12.58
19.226,-12.51
19.232,-12.34
19.237,-12.37
19.242,-12.3
19.246,-12.17
19.251,-12.29
19.255,-12.31
19.26,-12.34
19.264,-12.19
19.269,-12.13
19.273,-12.02
19.278,-12.08
19.282,-12.44
19.287,-12.42
19.291,-12.38
19.296,-12.29
19.3,-12.25
19.305,-12.37
19.31,-12.41
19.314,-12.4
19.319,-12.26
19.323,-12.39
19.328,-12.46
19.332,-12.33
19.337,-12.27
19.341,-12.25
19.346,-12.34
19.35,-12.4
19.355,-12.35
19.359,-12.29
19.364,-12.27
19.368,-12.16
19.373,-12.03
19.378,-11.87
19.382,-11.96
19.387,-12.19
19.391,-12.26
19.396,-12.32
19.4,-12.2
19.405,-12.2
19.409,-12.06
19.414,-12.24
19.418,-12.31
19.423,-12.33
19.427,-12.44
19.432,-12.31
19.436,-12.28
19.441,-12.38
19.445,-12.37
19.45,-12.42
19.455,-12.11
19.459,-12.31
19.464,-12.28
19.468,-12.14
19.473,-12.19
19.477,-12.08
19.482,-12.14
19.486,-12.17
19.491,-12.25
19.495,-12.12
19.5,-12.05
19.504,-11.93
19.509,-11.9
19.513,-11.88
19.518,-11.73
19.523,-11.84
19.527,-11.84
19.532,-11.84
19.536,-11.97
19.541,-12.05
19.545,-11.98
19.55,-12.0
19.554,-12.03
19.559,-12.11
19.563,-12.2
19.568,-12.07
19.572,-12.19
19.577,-12.25
19.581,-12.26
19.586,-12.2
19.589,-12.1
19.592,-12.12
19.595,-12.18
19.598,-12.05
19.602,-12.07
19.605,-12.13
19.608,-12.3
19.611,-12.27
19.614,-12.33
19.617,-12.24
19.62,-12.09
19.623,-12.12
19.626,-12.17
19.629,-12.33
19.632,-12.27
19.636,-12.21
19.639,-12.19
19.642,-12.26
19.645,-12.18
19.648,-12.05
19.651,-12.01
19.654,-12.01
19.657,-11.97
19.66,-12.07
19.663,-12.16
19.667,-12.29
19.67,-12.26
19.673,-12.28
19.676,-12.31
19.679,-12.32
19.682,-12.34
19.685,-12.41
19.688,-12.36
19.691,-12.3
19.694,-12.21
19.701,-12.26
19.704,-12.26
19.707,-12.33
19.71,-12.32
19.713,-12.31
19.716,-12.3
19.719,-12.28
19.722,-12.3
19.726,-12.04
19.729,-12.17
19.732,-12.13
19.735,-12.12
19.738,-12.03
19.741,-12.07
19.744,-12.12
19.747,-11.92
19.75,-11.91
19.753,-11.87
19.757,-12.08
19.76,-11.76
19.763,-11.95
19.766,-12.01
19.769,-12.16
19.772,-12.31
19.775,-12.26
19.778,-12.11
19.781,-12.06
19.784,-12.15
19.788,-12.27
19.791,-12.16
19.794,-12.19
19.797,-12.38
19.8,-12.44
19.803,-12.39
19.806,-12.37
19.809,-12.28
19.812,-12.27
19.815,-12.11
19.818,-12.2
19.822,-12.1
19.825,-12.04
19.828,-12.04
19.831,-12.05
19.834,-12.06
19.837,-12.11
19.84,-12.09
19.843,-12.15
19.846,-12.02
19.849,-12.14
19.853,-12.19
19.856,-12.18
19.859,-12.4
19.862,-12.31
19.865,-12.33
19.868,-12.33
19.871,-12.32
19.874,-12.33
19.877,-12.43
19.881,-12.32
19.884,-12.43
19.887,-12.44
19.89,-12.42
19.893,-12.38
19.896,-12.36
19.9,-12.24
19.904,-12.19
19.908,-12.38
19.912,-12.58
19.917,-12.6
19.921,-12.6
19.929,-12.5
19.933,-12.5
19.937,-12.52
19.941,-12.55
19.945,-12.66
19.949,-12.55
19.954,-12.42
19.958,-12.55
19.962,-12.57
19.966,-12.6
19.97,-12.61
19.974,-12.56
19.978,-12.62
19.982,-12.66
19.986,-12.65
19.991,-12.7
19.995,-12.45
19.999,-12.4
20.003,-12.56
20.007,-12.47
20.011,-12.21
20.015,-12.2
20.019,-12.25
20.023,-12.3
20.028,-12.34
20.032,-12.34
20.036,-12.28
20.04,-12.22
20.044,-12.22
20.048,-12.27
20.052,-12.38
20.056,-12.39
20.06,-12.29
20.065,-12.34
20.069,-12.2
20.073,-12.41
20.077,-12.47
20.081,-12.36
20.085,-12.2
20.089,-12.05
20.093,-11.93
20.097,-11.99
20.102,-12.07
20.106,-11.75
20.11,-12.15
20.114,-12.4
20.122,-12.45
20.126,-12.42
20.13,-12.24
20.134,-12.09
20.138,-12.11
20.143,-12.18
20.147,-11.97
20.151,-12.0
20.155,-11.94
20.159,-11.94
20.163,-11.82
20.167,-11.82
20.171,-11.81
20.175,-11.82
20.18,-11.95
20.184,-11.82
20.188,-11.82
20.192,-11.93
20.196,-11.85
20.2,-11.93
20.204,-12.0
20.208,-12.03
20.212,-12.11
20.217,-12.1
20.221,-12.11
20.225,-12.19
20.229,-12.21
20.233,-12.22
20.237,-12.34
20.241,-12.39
20.245,-12.35
20.249,-12.33
20.254,-12.22
20.258,-12.27
20.262,-12.25
20.266,-12.25
20.27,-12.22
20.274,-12.17
20.278,-12.15
20.282,-12.3
20.286,-12.43
20.291,-12.58
20.295,-12.61
20.299,-12.63
20.303,-12.51
20.307,-12.56
20.312,-12.56
20.316,-12.7
20.321,-12.71
20.326,-12.5
20.33,-12.47
20.335,-12.48
20.34,-12.4
20.344,-12.41
20.349,-12.49
20.354,-12.46
20.358,-12.47
20.363,-12.54
20.367,-12.55
20.372,-12.44
20.377,-12.42
20.381,-12.45
20.386,-12.35
20.391,-12.33
20.395,-12.27
20.4,-12.3
20.405,-12.3
20.409,-12.26
20.414,-12.23
20.416,-12.31
20.419,-12.37
20.423,-12.1
20.425,-12.09
20.427,-11.95
20.428,-11.99
20.433,-12.14
20.433,-12.14
20.433,-12.15
20.437,-12.14
20.44,-12.13
20.441,-12.13
20.442,-12.13
20.447,-12.11
20.447,-12.1
20.449,-12.05
20.451,-12.02
20.454,-12.01
20.456,-12.02
20.458,-12.02
20.46,-12.01
20.461,-12.02
20.465,-12.04
20.466,-12.04
20.468,-12.02
20.47,-12.0
20.474,-12.02
20.474,-12.02
20.475,-12.01
20.479,-11.99
20.482,-12.0
20.482,-12.0
20.484,-12.01
20.488,-12.01
20.489,-12.01
20.491,-12.06
20.493,-12.12
20.496,-12.14
20.498,-12.15
20.499,-12.16
20.502,-12.22
20.503,-12.22
20.507,-12.23
20.507,-12.23
20.509,-12.21
20.512,-12.19
20.515,-12.22
20.516,-12.23
20.516,-12.23
20.521,-12.18
20.523,-12.16
20.524,-12.16
20.526,-12.19
20.53,-12.21
20.531,-12.21
20.532,-12.17
20.536,-12.08
20.537,-12.07
20.541,-12.05
20.541,-12.05
20.544,-12.04
20.545,-12.04
20.55,-12.03
20.55,-12.03
20.551,-12.03
20.555,-12.08
20.558,-12.08
20.558,-12.08
20.56,-12.07
20.565,-11.98
20.565,-11.98
20.567,-11.96
20.57,-11.94
20.572,-11.95
20.575,-11.96
20.576,-11.96
20.579,-11.97
20.579,-11.96
20.584,-11.94
20.584,-11.94
20.585,-11.95
20.589,-11.97
20.592,-11.97
20.593,-11.97
20.594,-11.96
20.599,-11.95
20.599,-11.95
20.601,-12.0
20.604,-12.06
20.606,-12.14
20.609,-12.22
20.61,-12.25
20.613,-12.3
20.614,-12.3
20.618,-12.33
20.619,-12.33
20.62,-12.33
20.623,-12.32
20.627,-12.29
20.627,-12.29
20.628,-12.29
20.633,-12.32
20.634,-12.33
20.636,-12.36
20.638,-12.37
20.641,-12.3
20.643,-12.27
20.644,-12.28
20.648,-12.33
20.648,-12.33
20.652,-12.34
20.653,-12.33
20.654,-12.31
20.657,-12.29
20.661,-12.3
20.662,-12.3
20.662,-12.31
20.667,-12.45
20.668,-12.47
20.67,-12.46
20.672,-12.44
20.675,-12.38
20.677,-12.35
20.679,-12.34
20.682,-12.33
20.682,-12.33
20.686,-12.32
20.687,-12.32
20.689,-12.31
20.691,-12.29
20.696,-12.29
20.696,-12.29
20.696,-12.29
20.701,-12.2
20.703,-12.18
20.705,-12.17
20.706,-12.17
20.71,-12.18
20.711,-12.18
20.713,-12.21
20.716,-12.24
20.717,-12.24
20.72,-12.21
20.722,-12.22
20.724,-12.23
20.725,-12.26
20.73,-12.39
20.73,-12.39
20.731,-12.4
20.735,-12.34
20.737,-12.31
20.739,-12.29
20.74,-12.28
20.744,-12.26
20.748,-12.26
20.751,-12.26
20.756,-12.27
20.758,-12.28
20.759,-12.28
20.764,-12.31
20.765,-12.32
20.765,-12.32
20.769,-12.38
20.772,-12.41
20.774,-12.43
20.774,-12.43
20.779,-12.42
20.779,-12.42
20.782,-12.42
20.784,-12.43
20.786,-12.42
20.791,-12.42
20.793,-12.42
20.794,-12.41
20.8,-12.45
20.8,-12.47
20.801,-12.48
20.803,-12.46
20.803,-12.46
20.805,-12.45
20.807,-12.42
20.809,-12.43
20.81,-12.45
20.81,-12.46
20.812,-12.42
20.813,-12.43
20.814,-12.44
20.816,-12.42
20.818,-12.36
20.819,-12.38
20.82,-12.4
20.821,-12.42
20.823,-12.41
20.823,-12.41
20.825,-12.42
20.827,-12.45
20.828,-12.47
20.829,-12.49
20.831,-12.53
20.832,-12.56
20.833,-12.56
20.834,-12.56
20.836,-12.56
20.837,-12.56
20.838,-12.55
20.84,-12.53
20.842,-12.51
20.843,-12.48
20.843,-12.47
20.845,-12.46
20.846,-12.44
20.847,-12.43
20.849,-12.41
20.851,-12.39
20.853,-12.38
20.853,-12.38
20.854,-12.36
20.856,-12.32
20.856,-12.3
20.858,-12.28
20.86,-12.24
20.862,-12.23
20.863,-12.22
20.863,-12.21
20.865,-12.24
20.865,-12.26
20.867,-12.32
20.869,-12.29
20.871,-12.28
20.873,-12.32
20.873,-12.32
20.874,-12.34
20.874,-12.35
20.876,-12.39
20.878,-12.43
20.88,-12.49
20.882,-12.5
20.883,-12.53
20.883,-12.53
20.884,-12.55
20.884,-12.54
20.885,-12.53
20.885,-12.53
20.886,-12.52
20.887,-12.52
20.888,-12.52
20.889,-12.53
20.889,-12.53
20.89,-12.52
20.891,-12.51
20.891,-12.51
20.892,-12.51
20.892,-12.51
20.893,-12.52
20.893,-12.52
20.894,-12.52
20.895,-12.52
20.895,-12.51
20.896,-12.5
20.897,-12.5
20.898,-12.48
20.898,-12.47
20.899,-12.45
20.9,-12.4
20.9,-12.4
20.901,-12.38
20.901,-12.38
20.902,-12.37
20.902,-12.36
20.903,-12.33
20.904,-12.32
20.904,-12.32
20.905,-12.33
20.906,-12.33
20.907,-12.33
20.907,-12.33
20.908,-12.34
20.909,-12.35
20.909,-12.36
20.91,-12.36
20.91,-12.35
20.911,-12.35
20.911,-12.35
20.912,-12.34
20.913,-12.34
20.913,-12.33
20.915,-12.31
20.915,-12.31
20.916,-12.31
20.916,-12.32
20.917,-12.32
20.918,-12.33
20.918,-12.34
20.919,-12.33
20.919,-12.32
20.92,-12.31
20.92,-12.31
20.921,-12.3
20.922,-12.31
20.922,-12.31
20.924,-12.31
20.924,-12.32
20.925,-12.35
20.926,-12.38
20.926,-12.38
20.927,-12.4
20.927,-12.41
20.928,-12.4
20.929,-12.4
20.929,-12.39
20.929,-12.39
20.93,-12.38
20.931,-12.38
20.931,-12.38
20.932,-12.4
20.933,-12.4
20.934,-12.4
20.935,-12.4
20.935,-12.4
20.936,-12.41
20.937,-12.42
20.937,-12.41
20.938,-12.4
20.938,-12.4
20.938,-12.39
20.939,-12.39
20.94,-12.38
20.94,-12.38
20.941,-12.41
20.942,-12.41
20.943,-12.41
20.944,-12.41
20.944,-12.41
20.945,-12.41
20.946,-12.42
20.946,-12.41
20.947,-12.39
20.947,-12.39
20.948,-12.38
20.948,-12.38
20.949,-12.38
20.949,-12.38
20.95,-12.38
20.951,-12.38
20.952,-12.38
20.953,-12.35
20.953,-12.34
20.954,-12.33
20.955,-12.32
20.955,-12.32
20.956,-12.33
20.956,-12.33
20.957,-12.33
20.957,-12.34
20.958,-12.35
20.958,-12.35
20.959,-12.35
20.96,-12.35
20.961,-12.36
20.962,-12.39
20.962,-12.39
20.963,-12.39
20.964,-12.37
20.964,-12.37
20.965,-12.37
20.965,-12.38
20.966,-12.37
20.966,-12.37
20.967,-12.35
20.968,-12.34
20.968,-12.34
20.969,-12.33
20.97,-12.33
20.971,-12.35
20.971,-12.35
20.972,-12.34
20.973,-12.3
20.973,-12.3
20.974,-12.3
20.974,-12.31
20.975,-12.32
20.975,-12.32
20.976,-12.32
20.977,-12.32
20.977,-12.33
20.979,-12.35
20.979,-12.35
20.98,-12.39
20.98,-12.42
20.981,-12.42
20.982,-12.42
20.982,-12.42
20.983,-12.42
20.984,-12.42
20.984,-12.42
20.984,-12.41
20.985,-12.4
20.986,-12.38
20.986,-12.37
20.988,-12.34
20.988,-12.34
20.989,-12.32
20.99,-12.3
20.99,-12.29
20.991,-12.27
20.991,-12.26
20.992,-12.24
20.993,-12.23
20.993,-12.22
20.993,-12.22
20.994,-12.2
20.995,-12.18
20.995,-12.17
20.997,-12.14
20.997,-12.14
20.998,-12.17
20.999,-12.22
20.999,-12.22
21.0,-12.21
21.0,-12.21
21.001,-12.22
21.002,-12.24
21.002,-12.25
21.002,-12.25
21.003,-12.24
21.004,-12.23
21.004,-12.23
21.005,-12.24
21.006,-12.24
21.007,-12.24
21.008,-12.25
21.008,-12.25
21.009,-12.27
21.01,-12.28
21.01,-12.28
21.011,-12.29
21.011,-12.29
21.011,-12.29
21.012,-12.29
21.013,-12.3
21.013,-12.3
21.014,-12.32
21.015,-12.34
21.016,-12.35
21.017,-12.37
21.017,-12.37
21.018,-12.38
21.019,-12.39
21.019,-12.39
21.02,-12.39
21.02,-12.39
21.021,-12.39
21.021,-12.39
21.022,-12.39
21.022,-12.39
21.023,-12.42
21.024,-12.43
21.025,-12.44
21.026,-12.43
21.026,-12.43
21.027,-12.42
21.028,-12.4
21.028,-12.4
21.029,-12.41
21.029,-12.41
21.03,-12.41
21.03,-12.42
21.031,-12.43
21.032,-12.43
21.032,-12.41
21.033,-12.39
21.034,-12.38
21.035,-12.37
21.035,-12.36
21.036,-12.35
21.037,-12.31
21.037,-12.31
21.038,-12.29
21.039,-12.28
21.039,-12.29
21.039,-12.29
21.04,-12.31
21.041,-12.32
21.041,-12.31
21.043,-12.29
21.043,-12.29
21.044,-12.3
21.044,-12.31
21.045,-12.32
21.046,-12.36
21.046,-12.37
21.047,-12.38
21.048,-12.38
21.048,-12.38
21.048,-12.38
21.049,-12.38
21.05,-12.38
21.05,-12.38
21.052,-12.38
21.052,-12.38
21.053,-12.4
21.053,-12.42
21.054,-12.42
21.055,-12.42
21.055,-12.42
21.056,-12.41
21.057,-12.4
21.057,-12.4
21.057,-12.4
21.058,-12.41
21.059,-12.43
21.059,-12.44
21.061,-12.47
21.061,-12.47
21.062,-12.46
21.063,-12.43
21.063,-12.44
21.064,-12.47
21.064,-12.48
21.065,-12.5
21.066,-12.51
21.066,-12.52
21.066,-12.52
21.067,-12.51
21.068,-12.5
21.068,-12.49
21.069,-12.51
21.07,-12.52
21.071,-12.53
21.072,-12.54
21.072,-12.54
21.073,-12.53
21.074,-12.51
21.074,-12.52
21.075,-12.54
21.075,-12.54
21.075,-12.54
21.076,-12.53
21.077,-12.51
21.077,-12.5
21.078,-12.49
21.079,-12.49
21.08,-12.49
21.081,-12.5
21.081,-12.5
21.082,-12.5
21.083,-12.49
21.083,-12.48
21.084,-12.44
21.084,-12.43
21.085,-12.42
21.085,-12.41
21.086,-12.41
21.086,-12.41
21.087,-12.41
21.088,-12.41
21.089,-12.41
21.09,-12.41
21.09,-12.41
21.091,-12.42
21.092,-12.43
21.092,-12.43
21.093,-12.42
21.093,-12.41
21.094,-12.41
21.094,-12.41
21.095,-12.4
21.096,-12.4
21.096,-12.39
21.097,-12.39
21.098,-12.38
21.099,-12.37
21.099,-12.36
21.1,-12.35
21.101,-12.33
21.101,-12.33
21.102,-12.29
21.103,-12.26
21.103,-12.26
21.103,-12.26
21.104,-12.27
21.105,-12.27
21.105,-12.27
21.106,-12.25
21.107,-12.25
21.108,-12.23
21.108,-12.22
21.109,-12.22
21.11,-12.25
21.11,-12.25
21.111,-12.28
21.112,-12.3
21.112,-12.3
21.112,-12.3
21.113,-12.3
21.114,-12.3
21.114,-12.29
21.116,-12.27
21.116,-12.27
21.117,-12.26
21.117,-12.26
21.118,-12.25
21.119,-12.22
21.119,-12.21
21.12,-12.19
21.121,-12.17
21.121,-12.17
21.121,-12.17
21.122,-12.16
21.123,-12.16
21.123,-12.16
21.125,-12.14
21.125,-12.14
21.126,-12.14
21.127,-12.13
21.127,-12.13
21.128,-12.14
21.128,-12.14
21.129,-12.14
21.13,-12.15
21.13,-12.15
21.13,-12.15
21.131,-12.18
21.132,-12.21
21.132,-12.22
21.134,-12.24
21.134,-12.24
21.135,-12.23
21.136,-12.23
21.136,-12.23
21.137,-12.22
21.138,-12.22
21.138,-12.24
21.139,-12.27
21.139,-12.27
21.14,-12.28
21.141,-12.27
21.142,-12.26
21.143,-12.24
21.144,-12.22
21.145,-12.21
21.146,-12.21
21.147,-12.21
21.147,-12.21
21.148,-12.22
21.148,-12.22
21.149,-12.22
21.15,-12.21
21.151,-12.21
21.152,-12.21
21.153,-12.2
21.154,-12.2
21.155,-12.21
21.156,-12.21
21.157,-12.21
21.158,-12.2
21.158,-12.2
21.159,-12.2
21.159,-12.2
21.161,-12.2
21.161,-12.19
21.163,-12.2
21.163,-12.19
21.164,-12.18
21.165,-12.17
21.166,-12.17
21.167,-12.17
21.167,-12.17
21.168,-12.17
21.169,-12.17
21.17,-12.2
21.17,-12.2
21.172,-12.21
21.172,-12.21
21.174,-12.22
21.174,-12.23
21.176,-12.27
21.176,-12.27
21.176,-12.28
21.178,-12.29
21.178,-12.29
21.179,-12.31
21.18,-12.31
21.181,-12.29
21.181,-12.29
21.183,-12.31
21.183,-12.31
21.185,-12.33
21.185,-12.34
21.185,-12.34
21.187,-12.33
21.187,-12.33
21.189,-12.32
21.189,-12.32
21.191,-12.27
21.191,-12.26
21.192,-12.22
21.193,-12.21
21.194,-12.19
21.195,-12.19
21.195,-12.19
21.196,-12.2
21.196,-12.2
21.198,-12.19
21.198,-12.2
21.2,-12.22
21.2,-12.24
21.201,-12.28
21.202,-12.31
21.203,-12.37
21.204,-12.38
21.204,-12.38
21.205,-12.38
21.206,-12.38
21.207,-12.37
21.208,-12.36
21.209,-12.35
21.21,-12.36
21.211,-12.39
21.212,-12.4
21.212,-12.41
21.213,-12.41
21.213,-12.41
21.214,-12.4
21.215,-12.39
21.215,-12.39
21.216,-12.39
21.217,-12.4
21.217,-12.41
21.219,-12.43
21.219,-12.42
21.22,-12.4
21.221,-12.44
21.221,-12.45
21.222,-12.46
21.222,-12.46
21.223,-12.46
21.223,-12.46
21.224,-12.46
21.225,-12.45
21.225,-12.44
21.226,-12.42
21.227,-12.41
21.227,-12.4
21.228,-12.4
21.228,-12.4
21.229,-12.44
21.23,-12.45
21.23,-12.45
21.232,-12.46
21.232,-12.46
21.232,-12.45
21.233,-12.45
21.234,-12.38
21.234,-12.39
21.235,-12.4
21.236,-12.39
21.236,-12.39
21.237,-12.39
21.238,-12.4
21.238,-12.4
21.239,-12.4
21.24,-12.4
21.24,-12.4
21.241,-12.41
21.241,-12.42
21.242,-12.42
21.242,-12.41
21.243,-12.41
21.244,-12.41
21.244,-12.41
21.245,-12.42
21.246,-12.42
21.247,-12.45
21.247,-12.44
21.248,-12.43
21.249,-12.4
21.249,-12.41
21.25,-12.43
21.25,-12.43
21.251,-12.44
21.251,-12.44
21.252,-12.41
21.253,-12.39
21.253,-12.38
21.254,-12.37
21.255,-12.37
21.255,-12.36
21.256,-12.34
21.257,-12.33
21.257,-12.32
21.259,-12.33
21.259,-12.33
21.259,-12.32
21.26,-12.31
21.261,-12.3
21.261,-12.3
21.262,-12.27
21.262,-12.29
21.263,-12.29
21.264,-12.28
21.264,-12.28
21.265,-12.28
21.266,-12.27
21.266,-12.27
21.267,-12.28
21.268,-12.29
21.268,-12.29
21.268,-12.29
21.269,-12.29
21.27,-12.29
21.27,-12.29
21.271,-12.27
21.272,-12.27
21.273,-12.27
21.274,-12.23
21.274,-12.23
21.275,-12.21
21.276,-12.18
21.276,-12.18
21.277,-12.18
21.277,-12.15
21.278,-12.14
21.278,-12.14
21.279,-12.11
21.279,-12.1
21.28,-12.06
21.281,-12.01
21.281,-12.01
21.282,-12.01
21.283,-12.05
21.283,-12.06
21.284,-12.12
21.285,-12.15
21.286,-12.17
21.287,-12.16
21.287,-12.16
21.287,-12.16
21.288,-12.17
21.289,-12.17
21.289,-12.17
21.29,-12.2
21.291,-12.2
21.291,-12.21
21.292,-12.23
21.293,-12.25
21.293,-12.27
21.294,-12.31
21.294,-12.32
21.295,-12.33
21.296,-12.36
21.296,-12.36
21.296,-12.36
21.297,-12.41
21.298,-12.42
21.298,-12.42
21.3,-12.39
21.3,-12.4
21.301,-12.4
21.302,-12.37
21.302,-12.38
21.303,-12.41
21.304,-12.41
21.304,-12.41
21.305,-12.4
21.305,-12.39
21.306,-12.39
21.306,-12.38
21.307,-12.35
21.308,-12.35
21.308,-12.35
21.309,-12.34
21.31,-12.34
21.31,-12.32
21.311,-12.28
21.311,-12.28
21.312,-12.26
21.313,-12.29
21.314,-12.3
21.315,-12.28
21.315,-12.28
21.315,-12.27
21.316,-12.26
21.317,-12.25
21.317,-12.25
21.318,-12.23
21.319,-12.2
21.319,-12.2
21.32,-12.18
21.321,-12.18
21.321,-12.18
21.322,-12.18
21.323,-12.17
21.323,-12.18
21.324,-12.19
21.324,-12.21
21.325,-12.22
21.325,-12.24
21.326,-12.25
21.327,-12.25
21.328,-12.22
21.328,-12.21
21.329,-12.21
21.33,-12.2
21.33,-12.21
21.331,-12.21
21.332,-12.21
21.332,-12.21
21.333,-12.18
21.333,-12.18
21.334,-12.17
21.334,-12.18
21.335,-12.22
21.336,-12.27
21.336,-12.28
21.337,-12.3
21.338,-12.3
21.338,-12.28
21.339,-12.29
21.34,-12.29
21.341,-12.3
21.342,-12.31
21.342,-12.31
21.342,-12.3
21.343,-12.29
21.343,-12.29
21.344,-12.29
21.345,-12.28
21.345,-12.27
21.346,-12.26
21.347,-12.25
21.347,-12.25
21.348,-12.24
21.349,-12.24
21.349,-12.24
21.35,-12.25
21.351,-12.25
21.351,-12.25
21.352,-12.25
21.352,-12.26
21.353,-12.25
21.354,-12.24
21.355,-12.25
21.355,-12.25
21.356,-12.24
21.357,-12.25
21.357,-12.25
21.358,-12.26
21.359,-12.28
21.359,-12.28
21.36,-12.29
21.36,-12.3
21.361,-12.32
21.361,-12.33
21.362,-12.36
21.362,-12.36
21.363,-12.35
21.364,-12.32
21.364,-12.32
21.365,-12.31
21.366,-12.33
21.366,-12.35
21.368,-12.32
21.368,-12.33
21.369,-12.34
21.37,-12.38
21.37,-12.38
21.37,-12.37
21.371,-12.35
21.372,-12.36
21.374,-12.38
21.374,-12.39
21.375,-12.4
21.377,-12.42
21.378,-12.42
21.379,-12.43
21.379,-12.43
21.381,-12.43
21.382,-12.43
21.383,-12.41
21.385,-12.38
21.385,-12.38
21.387,-12.35
21.388,-12.31
21.389,-12.31
21.389,-12.3
21.391,-12.28
21.392,-12.26
21.392,-12.26
21.394,-12.19
21.396,-12.13
21.396,-12.12
21.398,-12.09
21.398,-12.09
21.4,-12.06
21.4,-12.06
21.402,-12.05
21.403,-12.05
21.404,-12.05
21.406,-12.08
21.407,-12.1
21.407,-12.1
21.408,-12.11
21.409,-12.13
21.411,-12.15
21.411,-12.14
21.414,-12.11
21.414,-12.11
21.416,-12.12
21.416,-12.12
21.418,-12.15
21.418,-12.15
21.42,-12.18
21.421,-12.2
21.423,-12.22
21.425,-12.25
21.425,-12.25
21.425,-12.25
21.427,-12.28
21.429,-12.31
21.429,-12.32
21.432,-12.37
21.432,-12.38
21.434,-12.38
21.434,-12.38
21.436,-12.34
21.436,-12.34
21.438,-12.33
21.439,-12.33
21.441,-12.32
21.443,-12.32
21.443,-12.32
21.443,-12.32
21.445,-12.32
21.447,-12.33
21.447,-12.34
21.45,-12.37
21.45,-12.38
21.452,-12.38
21.452,-12.38
21.454,-12.38
21.454,-12.38
21.456,-12.38
21.458,-12.37
21.459,-12.37
21.461,-12.38
21.461,-12.38
21.461,-12.38
21.463,-12.38
21.465,-12.39
21.465,-12.39
21.468,-12.37
21.468,-12.37
21.47,-12.36
21.47,-12.36
21.472,-12.33
21.472,-12.33
21.474,-12.32
21.476,-12.31
21.477,-12.31
21.479,-12.31
21.479,-12.31
21.479,-12.32
21.481,-12.32
21.483,-12.33
21.483,-12.35
21.486,-12.4
21.486,-12.42
21.488,-12.44
21.488,-12.44
21.49,-12.44
21.49,-12.44
21.493,-12.42
21.494,-12.41
21.495,-12.38
21.496,-12.34
21.497,-12.34
21.497,-12.34
21.499,-12.37
21.501,-12.4
21.502,-12.41
21.504,-12.41
21.504,-12.41
21.505,-12.41
21.506,-12.41
21.508,-12.39
21.508,-12.39
21.511,-12.4
21.512,-12.4
21.513,-12.38
21.514,-12.37
21.515,-12.37
21.515,-12.37
21.517,-12.41
21.519,-12.44
21.52,-12.45
21.522,-12.48
21.523,-12.49
21.523,-12.49
21.524,-12.49
21.526,-12.47
21.526,-12.47
21.529,-12.42
21.53,-12.39
21.531,-12.37
21.532,-12.34
21.533,-12.33
21.533,-12.33
21.535,-12.32
21.537,-12.32
21.538,-12.32
21.54,-12.34
21.541,-12.34
21.541,-12.33
21.542,-12.3
21.544,-12.25
21.544,-12.25
21.547,-12.2
21.548,-12.17
21.549,-12.17
21.55,-12.18
21.551,-12.19
21.551,-12.19
21.553,-12.17
21.555,-12.15
21.556,-12.14
21.558,-12.11
21.559,-12.11
21.559,-12.11
21.56,-12.11
21.562,-12.12
21.562,-12.12
21.565,-12.11
21.566,-12.1
21.567,-12.1
21.568,-12.09
21.569,-12.07
21.57,-12.07
21.571,-12.05
21.573,-12.03
21.574,-12.02
21.576,-11.99
21.577,-11.98
21.577,-11.98
21.578,-11.98
21.58,-11.98
21.581,-11.98
21.583,-11.97
21.584,-11.97
21.585,-11.99
21.586,-12.0
21.587,-12.03
21.588,-12.04
21.59,-12.06
21.591,-12.09
21.592,-12.09
21.594,-12.13
21.595,-12.14
21.595,-12.14
21.596,-12.17
21.598,-12.23
21.598,-12.24
21.598,-12.25
21.6,-12.32
21.602,-12.38
21.602,-12.38
21.602,-12.38
21.604,-12.35
21.605,-12.32
21.606,-12.31
21.606,-12.3
21.608,-12.27
21.608,-12.26
21.609,-12.24
21.609,-12.24
21.611,-12.22
21.612,-12.22
21.613,-12.23
21.613,-12.23
21.615,-12.28
21.615,-12.28
21.617,-12.32
21.617,-12.33
21.618,-12.36
21.619,-12.36
21.62,-12.38
21.621,-12.39
21.622,-12.41
21.623,-12.45
21.624,-12.47
21.625,-12.47
21.625,-12.47
21.627,-12.48
21.627,-12.5
21.628,-12.53
21.628,-12.54
21.63,-12.63
21.631,-12.66
21.632,-12.68
21.632,-12.69
21.634,-12.7
21.635,-12.7
21.635,-12.69
21.636,-12.68
21.638,-12.67
21.638,-12.67
21.638,-12.67
21.64,-12.7
21.642,-12.73
21.642,-12.73
21.642,-12.73
21.644,-12.69
21.645,-12.65
21.645,-12.64
21.646,-12.63
21.648,-12.59
21.648,-12.58
21.649,-12.58
21.649,-12.58
21.651,-12.58
21.652,-12.57
21.653,-12.54
21.653,-12.49
21.655,-12.36
21.655,-12.36
21.656,-12.34
21.657,-12.35
21.659,-12.41
21.659,-12.43
21.66,-12.45
21.661,-12.47
21.662,-12.48
21.663,-12.47
21.664,-12.46
21.665,-12.45
21.665,-12.45
21.667,-12.46
21.667,-12.47
21.668,-12.48
21.669,-12.48
21.67,-12.47
21.671,-12.47
21.672,-12.48
21.672,-12.48
21.674,-12.46
21.674,-12.46
21.675,-12.45
21.676,-12.47
21.677,-12.53
21.678,-12.56
21.679,-12.58
21.679,-12.6
21.68,-12.67
21.682,-12.73
21.682,-12.73
21.682,-12.73
21.683,-12.7
21.685,-12.67
21.685,-12.67
21.685,-12.67
21.686,-12.7
21.688,-12.75
21.688,-12.76
21.689,-12.77
21.689,-12.77
21.691,-12.77
21.691,-12.77
21.692,-12.79
21.692,-12.79
21.694,-12.82
21.695,-12.83
21.695,-12.83
21.696,-12.82
21.697,-12.81
21.699,-12.8
21.7,-12.81
21.702,-12.86
21.703,-12.88
21.704,-12.87
21.707,-12.8
21.707,-12.79
21.71,-12.75
21.71,-12.75
21.712,-12.72
21.714,-12.7
21.716,-12.69
21.718,-12.67
21.718,-12.67
21.721,-12.71
21.722,-12.71
21.723,-12.71
21.725,-12.72
21.727,-12.7
21.728,-12.67
21.729,-12.67
21.732,-12.63
21.733,-12.61
21.734,-12.61
21.736,-12.6
21.739,-12.61
21.739,-12.61
21.739,-12.61
21.743,-12.65
21.744,-12.67
21.744,-12.67
21.747,-12.69
21.749,-12.67
21.75,-12.66
21.75,-12.66
21.754,-12.62
21.755,-12.61
21.756,-12.6
21.757,-12.6
21.76,-12.58
21.761,-12.57
21.762,-12.56
21.765,-12.53
21.765,-12.52
21.767,-12.5
21.768,-12.49
21.771,-12.52
21.772,-12.53
21.773,-12.54
21.776,-12.55
21.776,-12.55
21.779,-12.54
21.779,-12.54
21.781,-12.59
21.783,-12.63
21.785,-12.64
21.786,-12.64
21.786,-12.64
21.79,-12.61
21.79,-12.61
21.792,-12.57
21.794,-12.51
21.796,-12.44
21.797,-12.44
21.797,-12.44
21.801,-12.53
21.802,-12.54
21.802,-12.55
21.804,-12.57
21.808,-12.61
21.808,-12.61
21.808,-12.61
21.812,-12.58
21.813,-12.59
21.813,-12.59
21.815,-12.6
21.818,-12.62
21.819,-12.63
21.819,-12.63
21.823,-12.58
21.823,-12.56
21.825,-12.55
21.826,-12.56
21.829,-12.57
21.83,-12.58
21.83,-12.59
21.833,-12.63
21.834,-12.63
21.836,-12.63
21.837,-12.62
21.839,-12.6
21.841,-12.59
21.842,-12.59
21.844,-12.62
21.845,-12.62
21.848,-12.63
21.848,-12.63
21.85,-12.63
21.851,-12.64
21.853,-12.67
21.855,-12.69
21.855,-12.7
21.859,-12.71
21.859,-12.72
21.86,-12.72
21.862,-12.73
21.865,-12.72
21.866,-12.71
21.866,-12.71
21.869,-12.7
21.871,-12.7
21.871,-12.69
21.873,-12.68
21.876,-12.71
21.876,-12.71
21.876,-12.71
21.88,-12.72
21.882,-12.71
21.882,-12.7
21.883,-12.69
21.887,-12.72
21.887,-12.72
21.888,-12.72
21.89,-12.72
21.892,-12.69
21.894,-12.68
21.894,-12.68
21.897,-12.72
21.897,-12.72
21.899,-12.71
21.901,-12.7
21.903,-12.72
21.904,-12.73
21.905,-12.73
21.908,-12.72
21.908,-12.71
21.911,-12.67
21.911,-12.67
21.913,-12.69
21.914,-12.71
21.916,-12.71
21.918,-12.69
21.919,-12.67
21.921,-12.62
21.922,-12.6
21.924,-12.58
21.925,-12.57
21.928,-12.56
21.928,-12.56
21.929,-12.56
21.932,-12.58
21.934,-12.59
21.934,-12.59
21.935,-12.59
21.939,-12.57
21.939,-12.55
21.94,-12.55
21.942,-12.55
21.945,-12.57
21.945,-12.57
21.946,-12.58
21.949,-12.64
21.95,-12.63
21.951,-12.63
21.952,-12.6
21.956,-12.59
21.956,-12.59
21.957,-12.58
21.959,-12.51
21.961,-12.5
21.962,-12.49
21.963,-12.5
21.966,-12.54
21.966,-12.54
21.968,-12.54
21.97,-12.52
21.972,-12.49
21.973,-12.47
21.974,-12.47
21.977,-12.51
21.977,-12.51
21.979,-12.51
21.98,-12.5
21.982,-12.49
21.984,-12.48
21.985,-12.46
21.987,-12.45
21.987,-12.46
21.991,-12.47
21.991,-12.47
21.993,-12.48
21.994,-12.48
21.997,-12.49
21.997,-12.49
21.998,-12.49
22.001,-12.5
22.002,-12.5
22.003,-12.49
22.004,-12.49
22.008,-12.5
22.008,-12.5
22.009,-12.5
22.011,-12.51
22.014,-12.51
22.014,-12.51
22.015,-12.51
22.018,-12.49
22.019,-12.49
22.02,-12.48
22.022,-12.47
22.025,-12.54
22.025,-12.54
22.026,-12.54
22.029,-12.54
22.032,-12.57
22.032,-12.58
22.035,-12.64
22.036,-12.65
22.039,-12.66
22.039,-12.66
22.042,-12.67
22.042,-12.67
22.046,-12.65
22.046,-12.65
22.048,-12.64
22.049,-12.64
22.052,-12.67
22.053,-12.67
22.053,-12.67
22.056,-12.68
22.059,-12.66
22.059,-12.66
22.06,-12.66
22.063,-12.7
22.064,-12.7
22.066,-12.68
22.067,-12.67
22.07,-12.6
22.07,-12.6
22.073,-12.61
22.073,-12.61
22.076,-12.58
22.077,-12.58
22.079,-12.61
22.08,-12.63
22.081,-12.64
22.084,-12.66
22.086,-12.63
22.087,-12.63
22.087,-12.63
22.091,-12.63
22.093,-12.65
22.093,-12.65
22.094,-12.65
22.098,-12.66
22.098,-12.66
22.099,-12.66
22.101,-12.67
22.104,-12.68
22.105,-12.68
22.106,-12.69
22.108,-12.71
22.109,-12.72
22.112,-12.76
22.113,-12.77
22.115,-12.79
22.115,-12.79
22.118,-12.8
22.12,-12.8
22.121,-12.79
22.122,-12.8
22.125,-12.85
22.126,-12.84
22.126,-12.84
22.129,-12.78
22.132,-12.75
22.132,-12.74
22.133,-12.73
22.136,-12.69
22.137,-12.69
22.139,-12.7
22.14,-12.7
22.143,-12.72
22.143,-12.72
22.146,-12.72
22.146,-12.72
22.149,-12.75
22.15,-12.77
22.153,-12.79
22.153,-12.79
22.154,-12.79
22.159,-12.77
22.159,-12.77
22.16,-12.76
22.163,-12.75
22.167,-12.74
22.17,-12.75
22.17,-12.75
22.174,-12.72
22.174,-12.72
22.176,-12.72
22.177,-12.72
22.179,-12.73
22.181,-12.73
22.184,-12.69
22.184,-12.69
22.188,-12.7
22.189,-12.7
22.191,-12.69
22.192,-12.67
22.194,-12.65
22.194,-12.64
22.198,-12.63
22.199,-12.63
22.201,-12.62
22.204,-12.58
22.205,-12.56
22.208,-12.6
22.208,-12.6
22.209,-12.61
22.212,-12.59
22.213,-12.59
22.215,-12.58
22.218,-12.59
22.219,-12.59
22.222,-12.59
22.223,-12.6
22.224,-12.62
22.226,-12.63
22.228,-12.6
22.229,-12.58
22.233,-12.58
22.233,-12.58
22.236,-12.56
22.238,-12.56
22.239,-12.56
22.241,-12.55
22.243,-12.53
22.243,-12.52
22.246,-12.44
22.247,-12.41
22.25,-12.33
22.252,-12.28
22.253,-12.27
22.257,-12.29
22.257,-12.29
22.257,-12.3
22.26,-12.33
22.262,-12.34
22.264,-12.34
22.267,-12.33
22.267,-12.33
22.271,-12.36
22.272,-12.35
22.273,-12.34
22.274,-12.34
22.277,-12.39
22.277,-12.4
22.281,-12.48
22.282,-12.48
22.284,-12.49
22.286,-12.52
22.288,-12.53
22.289,-12.53
22.291,-12.53
22.291,-12.53
22.295,-12.54
22.296,-12.53
22.298,-12.53
22.301,-12.55
22.302,-12.55
22.305,-12.53
22.305,-12.53
22.306,-12.52
22.309,-12.5
22.311,-12.53
22.312,-12.55
22.315,-12.57
22.316,-12.57
22.319,-12.54
22.32,-12.53
22.321,-12.53
22.322,-12.52
22.325,-12.51
22.326,-12.51
22.329,-12.52
22.33,-12.51
22.333,-12.48
22.335,-12.45
22.336,-12.44
22.338,-12.4
22.339,-12.36
22.34,-12.36
22.343,-12.36
22.345,-12.37
22.346,-12.39
22.35,-12.47
22.35,-12.47
22.353,-12.52
22.354,-12.52
22.355,-12.53
22.357,-12.54
22.359,-12.54
22.36,-12.54
22.363,-12.55
22.364,-12.56
22.367,-12.57
22.369,-12.56
22.37,-12.56
22.37,-12.55
22.374,-12.49
22.374,-12.5
22.377,-12.54
22.379,-12.57
22.381,-12.59
22.382,-12.6
22.384,-12.62
22.385,-12.63
22.385,-12.62
22.387,-12.61
22.387,-12.61
22.39,-12.63
22.391,-12.63
22.393,-12.63
22.394,-12.63
22.396,-12.64
22.398,-12.65
22.399,-12.65
22.399,-12.65
22.401,-12.66
22.401,-12.65
22.404,-12.61
22.405,-12.61
22.407,-12.65
22.408,-12.67
22.41,-12.66
22.411,-12.64
22.413,-12.64
22.414,-12.64
22.415,-12.65
22.415,-12.65
22.418,-12.66
22.418,-12.66
22.421,-12.69
22.422,-12.69
22.424,-12.68
22.425,-12.68
22.427,-12.68
22.428,-12.68
22.429,-12.68
22.43,-12.68
22.432,-12.69
22.432,-12.69
22.435,-12.71
22.435,-12.71
22.438,-12.68
22.441,-12.65
22.442,-12.64
22.442,-12.63
22.444,-12.62
22.446,-12.61
22.446,-12.62
22.449,-12.66
22.449,-12.66
22.452,-12.68
22.453,-12.68
22.455,-12.69
22.456,-12.7
22.456,-12.7
22.458,-12.7
22.459,-12.71
22.461,-12.72
22.463,-12.73
22.463,-12.74
22.466,-12.75
22.466,-12.75
22.469,-12.73
22.47,-12.72
22.47,-12.72
22.472,-12.71
22.473,-12.7
22.475,-12.7
22.477,-12.71
22.477,-12.69
22.48,-12.66
22.48,-12.65
22.483,-12.62
22.483,-12.61
22.484,-12.61
22.487,-12.63
22.489,-12.64
22.49,-12.66
22.491,-12.66
22.494,-12.66
22.494,-12.67
22.497,-12.68
22.497,-12.69
22.499,-12.69
22.5,-12.69
22.501,-12.7
22.503,-12.7
22.504,-12.71
22.506,-12.73
22.507,-12.76
22.508,-12.75
22.511,-12.74
22.511,-12.74
22.513,-12.78
22.514,-12.79
22.514,-12.79
22.517,-12.78
22.518,-12.78
22.52,-12.74
22.521,-12.71
22.522,-12.69
22.525,-12.64
22.525,-12.64
22.527,-12.64
22.528,-12.64
22.528,-12.64
22.531,-12.62
22.531,-12.61
22.534,-12.64
22.535,-12.65
22.536,-12.65
22.538,-12.64
22.539,-12.64
22.541,-12.66
22.542,-12.67
22.542,-12.66
22.545,-12.63
22.545,-12.63
22.548,-12.64
22.549,-12.64
22.551,-12.66
22.552,-12.66
22.553,-12.66
22.555,-12.66
22.555,-12.66
22.556,-12.66
22.559,-12.65
22.559,-12.65
22.562,-12.69
22.562,-12.69
22.565,-12.68
22.566,-12.68
22.567,-12.68
22.57,-12.68
22.57,-12.69
22.573,-12.69
22.573,-12.7
22.576,-12.7
22.576,-12.7
22.579,-12.67
22.579,-12.67
22.581,-12.69
22.583,-12.7
22.584,-12.7
22.584,-12.7
22.586,-12.68
22.587,-12.68
22.59,-12.68
22.59,-12.69
22.593,-12.74
22.596,-12.73
22.597,-12.72
22.598,-12.71
22.598,-12.71
22.6,-12.69
22.601,-12.67
22.603,-12.63
22.604,-12.63
22.607,-12.63
22.607,-12.63
22.61,-12.62
22.61,-12.61
22.612,-12.57
22.612,-12.56
22.614,-12.54
22.615,-12.57
22.617,-12.59
22.618,-12.6
22.621,-12.61
22.621,-12.61
22.624,-12.61
22.624,-12.61
22.626,-12.56
22.627,-12.55
22.627,-12.53
22.629,-12.54
22.631,-12.54
22.632,-12.53
22.634,-12.52
22.635,-12.51
22.638,-12.51
22.638,-12.51
22.64,-12.5
22.641,-12.5
22.641,-12.5
22.643,-12.5
22.645,-12.51
22.646,-12.52
22.648,-12.54
22.649,-12.55
22.651,-12.58
22.652,-12.58
22.655,-12.58
22.655,-12.58
22.655,-12.58
22.657,-12.58
22.658,-12.57
22.66,-12.55
22.662,-12.53
22.663,-12.5
22.665,-12.46
22.666,-12.46
22.669,-12.48
22.669,-12.48
22.669,-12.48
22.672,-12.44
22.672,-12.43
22.674,-12.42
22.675,-12.42
22.677,-12.43
22.679,-12.44
22.68,-12.43
22.682,-12.41
22.683,-12.41
22.683,-12.41
22.686,-12.4
22.686,-12.4
22.688,-12.4
22.689,-12.4
22.691,-12.4
22.693,-12.4
22.694,-12.42
22.696,-12.44
22.697,-12.43
22.697,-12.43
22.699,-12.39
22.7,-12.38
22.702,-12.39
22.703,-12.39
22.705,-12.43
22.706,-12.44
22.708,-12.45
22.71,-12.46
22.711,-12.45
22.711,-12.45
22.713,-12.43
22.714,-12.43
22.717,-12.46
22.717,-12.46
22.719,-12.46
22.72,-12.47
22.722,-12.49
22.723,-12.5
22.725,-12.49
22.726,-12.49
22.727,-12.48
22.727,-12.48
22.729,-12.48
22.73,-12.48
22.732,-12.49
22.732,-12.5
22.734,-12.53
22.734,-12.53
22.736,-12.53
22.736,-12.53
22.738,-12.53
22.738,-12.53
22.74,-12.53
22.74,-12.53
22.74,-12.53
22.742,-12.53
22.742,-12.53
22.744,-12.53
22.745,-12.52
22.745,-12.52
22.747,-12.53
22.747,-12.53
22.749,-12.53
22.749,-12.53
22.751,-12.54
22.751,-12.54
22.753,-12.54
22.753,-12.54
22.755,-12.55
22.755,-12.54
22.756,-12.54
22.757,-12.5
22.758,-12.48
22.759,-12.46
22.76,-12.49
22.76,-12.5
22.762,-12.5
22.762,-12.5
22.764,-12.49
22.764,-12.48
22.766,-12.44
22.767,-12.44
22.768,-12.47
22.769,-12.47
22.77,-12.45
22.77,-12.45
22.771,-12.43
22.772,-12.42
22.773,-12.39
22.774,-12.39
22.775,-12.39
22.776,-12.39
22.777,-12.36
22.777,-12.36
22.779,-12.32
22.78,-12.32
22.781,-12.35
22.782,-12.35
22.783,-12.36
22.784,-12.34
22.785,-12.33
22.785,-12.33
22.786,-12.34
22.787,-12.35
22.788,-12.34
22.789,-12.34
22.791,-12.36
22.791,-12.36
22.792,-12.41
22.793,-12.41
22.794,-12.39
22.795,-12.39
22.796,-12.41
22.797,-12.4
22.798,-12.39
22.799,-12.38
22.8,-12.38
22.8,-12.38
22.801,-12.38
22.802,-12.38
22.804,-12.34
22.804,-12.34
22.806,-12.33
22.806,-12.33
22.808,-12.34
22.808,-12.35
22.809,-12.36
22.81,-12.35
22.811,-12.34
22.812,-12.34
22.813,-12.35
22.815,-12.34
22.815,-12.34
22.815,-12.34
22.817,-12.34
22.817,-12.34
22.819,-12.33
22.819,-12.33
22.821,-12.37
22.821,-12.35
22.823,-12.31
22.823,-12.3
22.824,-12.29
22.825,-12.3
22.826,-12.31
22.828,-12.32
22.828,-12.32
22.829,-12.31
22.83,-12.3
22.83,-12.3
22.832,-12.28
22.832,-12.28
22.834,-12.3
22.834,-12.31
22.836,-12.33
22.836,-12.33
22.838,-12.32
22.839,-12.3
22.84,-12.27
22.841,-12.24
22.841,-12.23
22.843,-12.24
22.843,-12.24
22.844,-12.25
22.845,-12.25
22.845,-12.25
22.847,-12.21
22.847,-12.21
22.849,-12.24
22.85,-12.24
22.851,-12.24
22.852,-12.22
22.853,-12.2
22.854,-12.19
22.855,-12.19
22.856,-12.24
22.856,-12.25
22.858,-12.26
22.858,-12.26
22.859,-12.26
22.86,-12.27
22.86,-12.27
22.862,-12.27
22.863,-12.27
22.864,-12.29
22.865,-12.3
22.866,-12.3
22.867,-12.3
22.868,-12.3
22.869,-12.29
22.87,-12.29
22.871,-12.31
22.872,-12.31
22.873,-12.35
22.874,-12.35
22.874,-12.35
22.875,-12.38
22.876,-12.38
22.877,-12.38
22.878,-12.38
22.879,-12.37
22.88,-12.37
22.881,-12.37
22.882,-12.38
22.883,-12.39
22.884,-12.42
22.885,-12.42
22.887,-12.43
22.887,-12.43
22.888,-12.46
22.889,-12.46
22.889,-12.46
22.89,-12.43
22.891,-12.43
22.892,-12.43
22.893,-12.41
22.894,-12.4
22.895,-12.39
22.896,-12.4
22.898,-12.43
22.898,-12.43
22.9,-12.44
22.9,-12.44
22.902,-12.45
22.902,-12.44
22.903,-12.38
22.904,-12.37
22.904,-12.37
22.905,-12.38
22.906,-12.39
22.907,-12.38
22.909,-12.37
22.909,-12.36
22.911,-12.36
22.911,-12.36
22.913,-12.4
22.913,-12.4
22.915,-12.43
22.915,-12.44
22.917,-12.44
22.917,-12.42
22.918,-12.4
22.919,-12.39
22.919,-12.4
22.92,-12.42
22.922,-12.4
22.922,-12.39
22.924,-12.42
22.924,-12.42
22.926,-12.44
22.926,-12.44
22.928,-12.44
22.928,-12.44
22.93,-12.45
22.93,-12.46
22.932,-12.49
22.933,-12.49
22.933,-12.5
22.934,-12.5
22.935,-12.51
22.936,-12.52
22.937,-12.51
22.937,-12.51
22.939,-12.5
22.939,-12.5
22.941,-12.44
22.941,-12.44
22.943,-12.48
22.943,-12.48
22.945,-12.5
22.946,-12.5
22.947,-12.5
22.948,-12.48
22.948,-12.48
22.949,-12.46
22.95,-12.51
22.951,-12.53
22.952,-12.52
22.952,-12.52
22.954,-12.52
22.954,-12.52
22.956,-12.55
22.957,-12.55
22.958,-12.5
22.959,-12.48
22.96,-12.45
22.961,-12.45
22.962,-12.46
22.963,-12.48
22.963,-12.49
22.964,-12.5
22.965,-12.54
22.966,-12.54
22.967,-12.54
22.968,-12.53
22.969,-12.49
22.97,-12.48
22.971,-12.43
22.972,-12.43
22.974,-12.49
22.975,-12.5
22.976,-12.49
22.977,-12.47
22.978,-12.46
22.978,-12.45
22.979,-12.45
22.981,-12.49
22.981,-12.49
22.983,-12.46
22.983,-12.46
22.985,-12.45
22.985,-12.45
22.986,-12.44
22.987,-12.45
22.988,-12.46
22.989,-12.45
22.99,-12.45
22.992,-12.44
22.992,-12.44
22.992,-12.45
22.994,-12.48
22.994,-12.48
22.996,-12.49
22.996,-12.49
22.998,-12.43
22.998,-12.44
23.0,-12.46
23.0,-12.45
23.001,-12.43
23.002,-12.43
23.003,-12.44
23.005,-12.48
23.005,-12.49
23.007,-12.46
23.007,-12.46
23.009,-12.46
23.009,-12.46
23.011,-12.5
23.011,-12.49
23.013,-12.44
23.013,-12.45
23.015,-12.47
23.016,-12.47
23.017,-12.47
23.018,-12.47
23.018,-12.48
23.02,-12.48
23.02,-12.48
23.022,-12.46
23.022,-12.46
23.022,-12.46
23.024,-12.47
23.024,-12.47
23.026,-12.48
23.026,-12.47
23.028,-12.46
23.029,-12.48
23.03,-12.5
23.031,-12.48
23.032,-12.46
23.033,-12.45
23.033,-12.45
23.035,-12.4
23.035,-12.4
23.037,-12.39
23.037,-12.39
23.037,-12.39
23.039,-12.39
23.04,-12.39
23.041,-12.41
23.042,-12.42
23.043,-12.42
23.044,-12.4
23.045,-12.39
23.046,-12.39
23.047,-12.39
23.048,-12.4
23.049,-12.4
23.05,-12.38
23.051,-12.38
23.052,-12.38
23.052,-12.37
23.053,-12.37
23.054,-12.33
23.055,-12.31
23.056,-12.28
23.057,-12.28
23.058,-12.29
23.059,-12.28
23.06,-12.27
23.061,-12.24
23.062,-12.24
23.064,-12.21
23.064,-12.21
23.065,-12.24
23.066,-12.25
23.067,-12.25
23.067,-12.26
23.068,-12.27
23.069,-12.28
23.07,-12.28
23.071,-12.28
23.072,-12.26
23.073,-12.25
23.075,-12.23
23.075,-12.23
23.077,-12.27
23.077,-12.27
23.079,-12.21
23.079,-12.21
23.081,-12.21
23.081,-12.21
23.081,-12.21
23.082,-12.2
23.083,-12.22
23.084,-12.23
23.085,-12.23
23.086,-12.23
23.088,-12.22
23.088,-12.23
23.09,-12.26
23.09,-12.26
23.092,-12.29
23.092,-12.29
23.094,-12.31
23.094,-12.3
23.096,-12.28
23.096,-12.28
23.096,-12.28
23.097,-12.28
23.099,-12.31
23.099,-12.33
23.101,-12.35
23.101,-12.36
23.103,-12.38
23.103,-12.38
23.105,-12.36
23.105,-12.36
23.107,-12.37
23.107,-12.37
23.11,-12.4
23.111,-12.4
23.111,-12.4
23.112,-12.39
23.114,-12.34
23.115,-12.32
23.116,-12.31
23.118,-12.3
23.119,-12.29
23.12,-12.27
23.123,-12.24
23.123,-12.23
23.125,-12.21
23.126,-12.2
23.127,-12.2
23.127,-12.2
23.128,-12.2
23.13,-12.2
23.131,-12.2
23.131,-12.2
23.133,-12.21
23.134,-12.21
23.135,-12.22
23.135,-12.22
23.136,-12.22
23.137,-12.22
23.138,-12.22
23.139,-12.22
23.14,-12.22
23.141,-12.23
23.143,-12.23
23.143,-12.23
23.144,-12.23
23.146,-12.23
23.146,-12.23
23.147,-12.23
23.147,-12.23
23.149,-12.22
23.15,-12.22
23.151,-12.21
23.154,-12.22
23.155,-12.23
23.157,-12.22
23.159,-12.21
23.16,-12.21
23.16,-12.22
23.164,-12.24
23.164,-12.24
23.167,-12.2
23.168,-12.19
23.17,-12.23
23.172,-12.25
23.173,-12.25
23.176,-12.24
23.177,-12.23
23.177,-12.23
23.18,-12.22
23.18,-12.22
23.183,-12.26
23.184,-12.26
23.187,-12.29
23.188,-12.31
23.19,-12.31
23.192,-12.31
23.193,-12.3
23.194,-12.3
23.196,-12.29
23.197,-12.3
23.2,-12.32
23.2,-12.32
23.203,-12.35
23.204,-12.36
23.206,-12.37
23.208,-12.37
23.21,-12.37
23.211,-12.38
23.212,-12.38
23.213,-12.38
23.216,-12.41
23.216,-12.41
23.22,-12.46
23.22,-12.46
23.223,-12.47
23.224,-12.47
23.226,-12.5
23.228,-12.52
23.228,-12.52
23.23,-12.51
23.232,-12.47
23.233,-12.46
23.236,-12.47
23.236,-12.47
23.239,-12.43
23.24,-12.41
23.243,-12.42
23.246,-12.43
23.246,-12.43
23.248,-12.44
23.249,-12.44
23.252,-12.43
23.253,-12.43
23.256,-12.47
23.257,-12.47
23.259,-12.47
23.261,-12.47
23.263,-12.48
23.265,-12.5
23.266,-12.49
23.269,-12.49
23.269,-12.5
23.272,-12.52
23.273,-12.52
23.276,-12.54
23.277,-12.54
23.279,-12.54
23.28,-12.54
23.281,-12.54
23.282,-12.54
23.285,-12.54
23.286,-12.55
23.289,-12.57
23.289,-12.57
23.292,-12.56
23.293,-12.55
23.295,-12.55
23.297,-12.55
23.297,-12.55
23.299,-12.54
23.301,-12.53
23.302,-12.51
23.305,-12.47
23.305,-12.46
23.309,-12.46
23.309,-12.45
23.312,-12.42
23.313,-12.41
23.314,-12.39
23.315,-12.37
23.317,-12.33
23.319,-12.33
23.321,-12.33
23.322,-12.33
23.325,-12.37
23.325,-12.37
23.328,-12.34
23.329,-12.33
23.331,-12.33
23.332,-12.33
23.333,-12.33
23.335,-12.34
23.337,-12.36
23.338,-12.37
23.341,-12.44
23.342,-12.44
23.345,-12.43
23.346,-12.43
23.348,-12.43
23.348,-12.43
23.35,-12.44
23.352,-12.47
23.354,-12.5
23.355,-12.52
23.358,-12.55
23.358,-12.55
23.361,-12.59
23.362,-12.59
23.365,-12.63
23.366,-12.63
23.371,-12.63
23.375,-12.62
23.378,-12.62
23.378,-12.62
23.381,-12.62
23.382,-12.63
23.382,-12.63
23.385,-12.65
23.386,-12.66
23.388,-12.66
23.39,-12.65
23.391,-12.65
23.394,-12.63
23.394,-12.63
23.398,-12.65
23.398,-12.65
23.4,-12.66
23.402,-12.66
23.404,-12.63
23.406,-12.62
23.41,-12.63
23.411,-12.63
23.414,-12.62
23.417,-12.62
23.418,-12.63
23.418,-12.64
23.421,-12.66
23.424,-12.68
23.426,-12.69
23.427,-12.71
23.43,-12.76
23.431,-12.76
23.434,-12.77
23.434,-12.77
23.435,-12.77
23.437,-12.81
23.439,-12.83
23.441,-12.84
23.443,-12.86
23.444,-12.86
23.447,-12.86
23.447,-12.87
23.451,-12.88
23.451,-12.88
23.451,-12.88
23.454,-12.89
23.455,-12.89
23.457,-12.86
23.459,-12.84
23.46,-12.82
23.463,-12.79
23.464,-12.78
23.467,-12.75
23.467,-12.75
23.468,-12.76
23.47,-12.81
23.471,-12.82
23.474,-12.81
23.475,-12.81
23.477,-12.83
23.479,-12.85
23.48,-12.86
23.483,-12.9
23.484,-12.91
23.485,-12.93
23.487,-12.93
23.487,-12.93
23.49,-12.91
23.491,-12.9
23.493,-12.88
23.495,-12.86
23.497,-12.84
23.499,-12.8
23.499,-12.8
23.499,-12.8
23.502,-12.74
23.503,-12.71
23.505,-12.69
23.507,-12.64
23.507,-12.64
23.507,-12.64
23.51,-12.6
23.511,-12.57
23.512,-12.54
23.515,-12.48
23.515,-12.48
23.515,-12.48
23.518,-12.55
23.519,-12.61
23.52,-12.62
23.523,-12.65
23.523,-12.66
23.523,-12.66
23.526,-12.71
23.528,-12.76
23.528,-12.77
23.531,-12.8
23.531,-12.8
23.532,-12.8
23.533,-12.79
23.536,-12.77
23.536,-12.77
23.539,-12.72
23.539,-12.72
23.541,-12.71
23.541,-12.71
23.546,-12.76
23.547,-12.75
23.547,-12.74
23.549,-12.73
23.55,-12.73
23.552,-12.75
23.554,-12.79
23.555,-12.8
23.555,-12.8
23.557,-12.81
23.56,-12.83
23.56,-12.83
23.562,-12.87
23.563,-12.88
23.564,-12.87
23.565,-12.86
23.568,-12.82
23.569,-12.79
23.57,-12.77
23.571,-12.75
23.573,-12.72
23.574,-12.7
23.575,-12.68
23.578,-12.64
23.578,-12.64
23.579,-12.62
23.581,-12.61
23.583,-12.6
23.583,-12.6
23.586,-12.62
23.587,-12.64
23.588,-12.64
23.588,-12.64
23.591,-12.64
23.592,-12.64
23.594,-12.64
23.595,-12.65
23.596,-12.67
23.597,-12.69
23.599,-12.75
23.602,-12.85
23.602,-12.85
23.603,-12.87
23.604,-12.88
23.606,-12.89
23.607,-12.9
23.609,-12.92
23.611,-12.93
23.611,-12.93
23.612,-12.93
23.615,-12.92
23.617,-12.91
23.619,-12.91
23.62,-12.92
23.62,-12.92
23.623,-12.95
23.625,-12.97
23.625,-12.97
23.627,-12.98
23.628,-12.98
23.63,-12.98
23.63,-12.99
23.633,-13.03
23.634,-13.05
23.635,-13.05
23.636,-13.05
23.638,-13.01
23.639,-12.99
23.641,-12.96
23.643,-12.92
23.644,-12.91
23.644,-12.91
23.646,-12.94
23.648,-12.96
23.649,-12.96
23.651,-12.97
23.651,-12.97
23.653,-12.98
23.654,-12.98
23.658,-12.95
23.66,-12.92
23.661,-12.91
23.663,-12.88
23.667,-12.89
23.669,-12.89
23.672,-12.91
23.677,-13.02
23.677,-13.02
23.681,-12.97
23.685,-12.9
23.686,-12.89
23.691,-12.84
23.693,-12.83
23.695,-12.83
23.7,-12.89
23.701,-12.89
23.705,-12.88
23.709,-12.9
23.709,-12.9
23.714,-12.92
23.717,-12.92
23.719,-12.92
23.723,-12.91
23.725,-12.93
23.728,-12.96
23.733,-12.91
23.733,-12.91
23.737,-12.92
23.741,-12.94
23.742,-12.94
23.747,-12.96
23.749,-12.94
23.751,-12.95
23.756,-13.0
23.757,-13.0
23.761,-12.92
23.765,-12.88
23.765,-12.88
23.77,-13.0
23.773,-12.93
23.775,-12.88
23.779,-12.89
23.781,-12.9
23.784,-12.96
23.789,-12.97
23.789,-12.97
23.793,-12.92
23.797,-12.95
23.798,-12.97
23.803,-13.0
23.805,-13.02
23.807,-13.04
23.812,-12.97
23.813,-12.97
23.821,-13.03
23.821,-13.03
23.826,-12.95
23.828,-12.96
23.831,-13.01
23.836,-13.02
23.836,-13.03
23.84,-13.02
23.844,-13.0
23.845,-13.0
23.85,-13.04
23.852,-13.05
23.854,-13.06
23.859,-13.08
23.86,-13.08
23.864,-13.09
23.868,-13.08
23.868,-13.08
23.873,-13.03
23.876,-13.03
23.878,-13.04
23.882,-13.02
23.884,-13.03
23.887,-13.03
23.892,-13.1
23.892,-13.1
23.896,-13.12
23.9,-13.05
23.901,-13.05
23.906,-13.11
23.908,-13.09
23.91,-13.07
23.915,-13.08
23.916,-13.07
23.92,-13.04
23.924,-13.13
23.924,-13.13
23.929,-13.08
23.932,-13.07
23.934,-13.09
23.938,-13.11
23.94,-13.13
23.943,-13.16
23.948,-13.14
23.948,-13.14
23.952,-13.18
23.956,-13.2
23.957,-13.2
23.962,-13.13
23.964,-13.13
23.966,-13.14
23.971,-13.1
23.972,-13.1
23.976,-13.12
23.98,-13.09
23.98,-13.09
23.985,-13.15
23.988,-13.15
23.99,-13.15
23.994,-13.16
23.996,-13.16
23.999,-13.14
24.004,-13.12
24.004,-13.12
24.009,-13.15
24.012,-13.16
24.013,-13.17
24.018,-13.17
24.02,-13.17
24.023,-13.15
24.027,-13.09
24.028,-13.08
24.032,-13.05
24.036,-12.94
24.037,-12.93
24.041,-12.88
24.044,-12.87
24.046,-12.88
24.051,-12.95
24.052,-12.97
24.055,-13.0
24.06,-12.94
24.06,-12.94
24.065,-12.92
24.068,-12.87
24.069,-12.86
24.074,-12.83
24.076,-12.81
24.079,-12.77
24.083,-12.83
24.084,-12.82
24.088,-12.7
24.092,-12.67
24.093,-12.66
24.097,-12.64
24.1,-12.62
24.102,-12.63
24.107,-12.7
24.108,-12.7
24.114,-12.61
24.116,-12.56
24.12,-12.5
24.124,-12.67
24.127,-12.84
24.132,-12.75
24.134,-12.7
24.14,-12.75
24.141,-12.77
24.148,-12.89
24.148,-12.89
24.154,-12.79
24.155,-12.78
24.161,-12.77
24.162,-12.82
24.167,-12.97
24.168,-12.93
24.173,-12.79
24.175,-12.76
24.179,-12.73
24.182,-12.73
24.186,-12.81
24.189,-12.82
24.192,-12.81
24.196,-12.83
24.198,-12.85
24.203,-12.81
24.205,-12.8
24.21,-12.74
24.211,-12.71
24.216,-12.59
24.217,-12.58
24.223,-12.62
24.223,-12.62
24.23,-12.64
24.23,-12.65
24.236,-12.72
24.237,-12.74
24.242,-12.75
24.244,-12.74
24.248,-12.72
24.251,-12.71
24.255,-12.64
24.258,-12.6
24.261,-12.63
24.264,-12.68
24.267,-12.69
24.271,-12.67
24.274,-12.67
24.278,-12.68
24.28,-12.66
24.285,-12.56
24.286,-12.56
24.292,-12.63
24.292,-12.63
24.299,-12.6
24.299,-12.6
24.305,-12.62
24.306,-12.61
24.311,-12.54
24.312,-12.54
24.318,-12.6
24.319,-12.61
24.324,-12.61
24.326,-12.61
24.33,-12.64
24.333,-12.64
24.336,-12.65
24.34,-12.71
24.343,-12.73
24.347,-12.74
24.349,-12.74
24.354,-12.76
24.355,-12.78
24.361,-12.85
24.361,-12.86
24.367,-12.89
24.368,-12.89
24.374,-12.86
24.374,-12.86
24.38,-12.86
24.381,-12.86
24.387,-12.9
24.388,-12.9
24.393,-12.81
24.395,-12.78
24.399,-12.79
24.402,-12.8
24.405,-12.82
24.409,-12.78
24.412,-12.7
24.415,-12.68
24.418,-12.69
24.422,-12.72
24.424,-12.73
24.429,-12.67
24.431,-12.65
24.436,-12.6
24.437,-12.59
24.443,-12.52
24.443,-12.52
24.449,-12.64
24.45,-12.64
24.456,-12.63
24.457,-12.66
24.462,-12.74
24.463,-12.74
24.468,-12.8
24.47,-12.79
24.474,-12.7
24.477,-12.67
24.481,-12.72
24.484,-12.73
24.487,-12.75
24.491,-12.84
24.493,-12.84
24.498,-12.84
24.5,-12.84
24.505,-12.69
24.506,-12.66
24.511,-12.51
24.512,-12.5
24.518,-12.52
24.518,-12.52
24.525,-12.86
24.525,-12.89
24.531,-13.14
24.532,-13.15
24.537,-13.17
24.539,-13.18
24.544,-13.14
24.546,-13.11
24.55,-13.08
24.553,-13.1
24.556,-13.1
24.559,-13.08
24.562,-13.06
24.566,-13.01
24.569,-13.01
24.573,-13.06
24.575,-13.09
24.58,-13.2
24.581,-13.21
24.587,-13.14
24.587,-13.13
24.594,-13.11
24.594,-13.11
24.6,-13.17
24.601,-13.18
24.606,-13.11
24.607,-13.12
24.613,-13.29
24.614,-13.29
24.619,-13.17
24.621,-13.14
24.625,-13.14
24.628,-13.19
24.631,-13.3
24.635,-13.36
24.638,-13.35
24.642,-13.32
24.644,-13.29
24.649,-13.24
24.65,-13.24
24.655,-13.24
24.657,-13.24
24.662,-13.21
24.663,-13.21
24.669,-13.16
24.669,-13.16
24.675,-13.1
24.676,-13.1
24.682,-13.04
24.683,-13.04
24.688,-13.06
24.69,-13.05
24.694,-13.04
24.697,-13.08
24.697,-13.08
24.7,-13.12
24.703,-13.16
24.704,-13.13
24.705,-13.11
24.706,-13.13
24.708,-13.16
24.709,-13.19
24.711,-13.27
24.712,-13.28
24.714,-13.18
24.715,-13.15
24.717,-13.15
24.718,-13.15
24.72,-13.15
24.72,-13.15
24.723,-13.11
24.723,-13.11
24.726,-13.15
24.726,-13.16
24.728,-13.17
24.729,-13.17
24.731,-13.15
24.732,-13.15
24.734,-13.17
24.735,-13.18
24.737,-13.23
24.737,-13.23
24.74,-13.18
24.74,-13.18
24.743,-13.13
24.743,-13.13
24.746,-13.12
24.746,-13.12
24.749,-13.01
24.749,-13.01
24.751,-12.97
24.752,-12.97
24.754,-12.94
24.754,-12.94
24.757,-12.9
24.757,-12.9
24.76,-12.94
24.76,-12.94
24.763,-12.84
24.763,-12.84
24.766,-12.89
24.766,-12.9
24.768,-12.97
24.769,-12.96
24.771,-12.91
24.772,-12.92
24.774,-13.04
24.775,-13.06
24.777,-13.1
24.778,-13.11
24.78,-13.09
24.78,-13.11
24.783,-13.18
24.783,-13.17
24.785,-13.13
24.786,-13.12
24.788,-13.11
24.789,-13.1
24.791,-13.05
24.792,-13.02
24.794,-12.99
24.795,-13.02
24.797,-13.13
24.798,-13.11
24.799,-13.01
24.801,-13.0
24.802,-13.02
24.804,-13.06
24.805,-13.13
24.806,-13.1
24.808,-13.02
24.809,-12.99
24.811,-13.0
24.812,-13.01
24.814,-13.03
24.815,-12.99
24.816,-12.96
24.818,-12.96
24.819,-12.96
24.821,-12.95
24.822,-12.95
24.824,-12.95
24.825,-12.94
24.827,-12.9
24.828,-12.89
24.83,-12.91
24.831,-12.9
24.832,-12.85
24.833,-12.82
24.835,-12.82
24.836,-12.82
24.838,-12.77
24.839,-12.76
24.841,-12.73
24.842,-12.71
24.844,-12.65
24.845,-12.64
24.847,-12.65
24.847,-12.66
24.85,-12.59
24.85,-12.57
24.853,-12.56
24.853,-12.57
24.856,-12.62
24.858,-12.68
24.859,-12.69
24.861,-12.79
24.864,-12.88
24.864,-12.89
24.867,-12.95
24.867,-12.95
24.87,-12.98
24.87,-12.98
24.873,-13.0
24.873,-13.0
24.876,-12.98
24.876,-12.98
24.879,-12.94
24.879,-12.94
24.881,-12.91
24.882,-12.91
24.884,-12.85
24.884,-12.84
24.887,-12.84
24.887,-12.84
24.89,-12.75
24.89,-12.74
24.893,-12.64
24.893,-12.64
24.895,-12.6
24.896,-12.6
24.898,-12.63
24.899,-12.64
24.901,-12.68
24.902,-12.69
24.904,-12.71
24.905,-12.7
24.907,-12.71
24.91,-12.58
24.91,-12.58
24.913,-12.59
24.915,-12.63
24.916,-12.64
24.918,-12.62
24.919,-12.65
24.921,-12.73
24.922,-12.74
24.924,-12.72
24.925,-12.76
24.927,-12.84
24.928,-12.84
24.929,-12.84
24.931,-12.86
24.932,-12.86
24.933,-12.85
24.935,-12.87
24.936,-12.87
24.938,-12.87
24.939,-12.92
24.941,-12.97
24.942,-12.99
24.943,-13.02
24.945,-13.03
24.946,-13.02
24.948,-13.04
24.949,-13.04
24.951,-12.97
24.952,-12.95
24.954,-12.91
24.955,-12.87
24.957,-12.9
24.958,-12.94
24.959,-12.9
24.96,-12.88
24.962,-12.94
24.963,-12.96
24.965,-12.96
24.966,-12.96
24.968,-12.94
24.969,-12.93
24.971,-12.94
24.972,-12.94
24.974,-12.98
24.975,-12.98
24.977,-12.96
24.977,-12.95
24.98,-12.82
24.98,-12.8
24.983,-12.75
24.983,-12.76
24.985,-12.84
24.986,-12.85
24.988,-12.91
24.989,-12.92
24.991,-12.96
24.991,-12.96
24.994,-12.96
24.994,-12.96
24.997,-13.09
24.997,-13.1
25.0,-13.2
25.0,-13.2
25.003,-13.14
25.003,-13.14
25.006,-13.12
25.006,-13.12
25.008,-13.14
25.009,-13.14
25.011,-13.2
25.011,-13.21
25.014,-13.31
25.014,-13.32
25.017,-13.29
25.017,-13.28
25.02,-13.19
25.02,-13.19
25.023,-13.18
25.023,-13.18
25.025,-13.19
25.026,-13.2
25.028,-13.22
25.029,-13.21
25.031,-13.17
25.032,-13.17
25.034,-13.19
25.035,-13.19
25.037,-13.13
25.037,-13.11
25.039,-13.05
25.04,-13.04
25.042,-13.01
25.043,-13.0
25.045,-13.01
25.046,-13.04
25.048,-13.09
25.049,-13.11
25.051,-13.1
25.052,-13.09
25.054,-13.1
25.055,-13.14
25.056,-13.21
25.058,-13.28
25.059,-13.32
25.061,-13.31
25.062,-13.3
25.063,-13.3
25.065,-13.3
25.066,-13.31
25.068,-13.29
25.069,-13.25
25.071,-13.22
25.072,-13.19
25.073,-13.19
25.075,-13.22
25.076,-13.22
25.078,-13.18
25.079,-13.15
25.081,-13.13
25.082,-13.13
25.084,-13.15
25.085,-13.17
25.087,-13.24
25.087,-13.27
25.089,-13.31
25.09,-13.32
25.092,-13.33
25.093,-13.33
25.095,-13.32
25.096,-13.33
25.098,-13.4
25.099,-13.41
25.101,-13.39
25.102,-13.39
25.104,-13.36
25.104,-13.36
25.107,-13.38
25.107,-13.38
25.11,-13.36
25.11,-13.37
25.113,-13.43
25.113,-13.44
25.115,-13.49
25.116,-13.5
25.118,-13.49
25.119,-13.49
25.121,-13.47
25.121,-13.46
25.124,-13.48
25.124,-13.48
25.127,-13.47
25.127,-13.47
25.13,-13.48
25.13,-13.48
25.133,-13.36
25.133,-13.36
25.135,-13.47
25.136,-13.48
25.138,-13.48
25.138,-13.48
25.141,-13.45
25.141,-13.45
25.144,-13.45
25.144,-13.45
25.147,-13.44
25.147,-13.44
25.15,-13.47
25.15,-13.46
25.152,-13.43
25.153,-13.42
25.155,-13.38
25.156,-13.33
25.158,-13.05
25.159,-13.01
25.161,-13.1
25.162,-13.13
25.164,-13.27
25.164,-13.26
25.167,-13.13
25.167,-13.14
25.169,-13.2
25.17,-13.2
25.172,-13.2
25.173,-13.17
25.175,-13.11
25.176,-13.11
25.178,-13.15
25.179,-13.17
25.181,-13.21
25.182,-13.25
25.183,-13.3
25.185,-13.34
25.186,-13.39
25.188,-13.39
25.189,-13.36
25.19,-13.38
25.192,-13.42
25.193,-13.41
25.195,-13.36
25.196,-13.34
25.198,-13.33
25.199,-13.32
25.2,-13.32
25.202,-13.32
25.203,-13.33
25.205,-13.37
25.206,-13.39
25.208,-13.39
25.209,-13.38
25.211,-13.41
25.212,-13.45
25.214,-13.44
25.215,-13.42
25.216,-13.37
25.217,-13.35
25.219,-13.37
25.22,-13.39
25.222,-13.39
25.224,-13.37
25.226,-13.4
25.227,-13.44
25.229,-13.43
25.231,-13.4
25.233,-13.38
25.235,-13.4
25.236,-13.39
25.238,-13.37
25.24,-13.34
25.242,-13.3
25.243,-13.29
25.245,-13.28
25.247,-13.27
25.249,-13.25
25.25,-13.27
25.252,-13.33
25.254,-13.34
25.256,-13.35
25.257,-13.35
25.26,-13.37
25.261,-13.38
25.263,-13.39
25.264,-13.38
25.267,-13.33
25.268,-13.31
25.27,-13.3
25.271,-13.3
25.274,-13.32
25.275,-13.32
25.278,-13.24
25.278,-13.23
25.281,-13.24
25.282,-13.23
25.285,-13.14
25.285,-13.14
25.288,-13.15
25.289,-13.15
25.292,-13.11
25.292,-13.11
25.295,-13.06
25.296,-13.06
25.299,-13.05
25.299,-13.05
25.303,-13.11
25.303,-13.12
25.306,-13.08
25.306,-13.08
25.309,-12.96
25.31,-12.95
25.313,-12.87
25.313,-12.86
25.316,-12.8
25.317,-12.8
25.32,-12.83
25.321,-12.84
25.323,-12.83
25.324,-12.83
25.327,-12.86
25.328,-12.86
25.33,-12.84
25.331,-12.84
25.334,-12.85
25.335,-12.87
25.337,-12.95
25.338,-13.0
25.341,-13.17
25.342,-13.22
25.344,-13.25
25.346,-13.24
25.348,-13.22
25.349,-13.19
25.351,-13.14
25.353,-13.13
25.355,-13.16
25.356,-13.16
25.358,-13.11
25.36,-13.07
25.362,-13.05
25.364,-13.04
25.365,-13.01
25.367,-12.99
25.369,-12.99
25.371,-12.98
25.372,-12.96
25.374,-12.94
25.376,-12.95
25.378,-12.93
25.379,-12.91
25.381,-12.85
25.383,-12.84
25.385,-12.81
25.386,-12.79
25.389,-12.76
25.39,-12.75
25.392,-12.77
25.393,-12.78
25.396,-12.79
25.396,-12.78
25.399,-12.73
25.4,-12.72
25.403,-12.76
25.403,-12.77
25.407,-12.87
25.407,-12.87
25.41,-12.89
25.41,-12.89
25.414,-12.92
25.414,-12.93
25.417,-13.02
25.417,-13.02
25.421,-13.06
25.421,-13.06
25.424,-13.0
25.424,-13.0
25.428,-13.09
25.428,-13.09
25.431,-13.11
25.432,-13.11
25.435,-13.12
25.435,-13.12
25.438,-13.12
25.439,-13.12
25.442,-13.11
25.442,-13.11
25.445,-13.11
25.446,-13.11
25.449,-13.11
25.45,-13.12
25.452,-13.11
25.453,-13.1
25.456,-13.07
25.457,-13.06
25.459,-13.01
25.46,-13.0
25.463,-13.02
25.464,-13.04
25.466,-13.11
25.468,-13.14
25.47,-13.16
25.471,-13.2
25.473,-13.2
25.475,-13.18
25.477,-13.19
25.478,-13.23
25.48,-13.22
25.482,-13.19
25.483,-13.21
25.485,-13.24
25.487,-13.23
25.489,-13.24
25.49,-13.25
25.493,-13.23
25.494,-13.24
25.496,-13.27
25.497,-13.26
25.5,-13.24
25.501,-13.24
25.503,-13.21
25.504,-13.21
25.507,-13.22
25.508,-13.21
25.511,-13.17
25.511,-13.16
25.514,-13.17
25.515,-13.16
25.518,-13.15
25.518,-13.16
25.521,-13.19
25.522,-13.19
25.525,-13.23
25.525,-13.24
25.528,-13.25
25.529,-13.25
25.532,-13.25
25.532,-13.25
25.536,-13.24
25.536,-13.24
25.539,-13.23
25.539,-13.23
25.543,-13.22
25.543,-13.22
25.546,-13.24
25.546,-13.24
25.55,-13.21
25.55,-13.21
25.553,-13.21
25.554,-13.2
25.557,-13.0
25.557,-13.0
25.561,-13.03
25.564,-12.85
25.564,-12.81
25.567,-12.84
25.57,-12.91
25.571,-12.93
25.574,-12.92
25.575,-12.92
25.577,-12.91
25.579,-12.91
25.581,-12.89
25.582,-12.89
25.584,-12.87
25.586,-12.85
25.588,-12.81
25.589,-12.79
25.591,-12.77
25.593,-12.77
25.595,-12.77
25.597,-12.77
25.598,-12.77
25.6,-12.75
25.602,-12.75
25.604,-12.72
25.605,-12.72
25.607,-12.76
25.609,-12.77
25.611,-12.75
25.612,-12.69
25.614,-12.61
25.616,-12.63
25.618,-12.68
25.619,-12.69
25.622,-12.65
25.623,-12.65
25.625,-12.65
25.626,-12.66
25.629,-12.71
25.63,-12.72
25.632,-12.72
25.633,-12.72
25.636,-12.7
25.637,-12.69
25.64,-12.77
25.64,-12.78
25.643,-12.84
25.644,-12.84
25.647,-12.83
25.647,-12.84
25.65,-12.91
25.651,-12.92
25.654,-12.9
25.654,-12.9
25.657,-12.97
25.657,-12.97
25.661,-13.01
25.661,-13.01
25.664,-12.97
25.665,-12.96
25.668,-12.98
25.668,-12.99
25.671,-13.02
25.672,-13.02
25.675,-13.03
25.675,-13.03
25.678,-12.94
25.679,-12.93
25.682,-12.93
25.683,-12.94
25.685,-12.92
25.686,-12.91
25.689,-12.87
25.69,-12.85
25.692,-12.8
25.693,-12.81
25.696,-12.9
25.697,-12.92
25.699,-12.92
25.7,-12.93
25.703,-12.93
25.704,-12.91
25.706,-12.97
25.708,-13.01
25.71,-12.96
25.711,-12.94
25.713,-12.97
25.715,-12.98
25.717,-12.95
25.718,-12.91
25.72,-12.88
25.722,-12.88
25.724,-12.9
25.726,-12.9
25.727,-12.9
25.729,-12.89
25.731,-12.9
25.733,-12.87
25.734,-12.88
25.736,-12.92
25.738,-12.92
25.74,-12.97
25.741,-12.99
25.744,-12.98
25.744,-12.95
25.747,-12.89
25.748,-12.88
25.751,-12.91
25.751,-12.93
25.754,-12.97
25.755,-12.96
25.758,-12.91
25.758,-12.9
25.761,-12.86
25.762,-12.87
25.765,-12.94
25.765,-12.94
25.769,-12.9
25.769,-12.91
25.772,-12.94
25.772,-12.94
25.776,-12.82
25.776,-12.82
25.779,-12.87
25.779,-12.87
25.783,-12.91
25.783,-12.91
25.786,-12.96
25.787,-12.96
25.79,-12.78
25.79,-12.77
25.793,-12.83
25.794,-12.83
25.797,-12.88
25.797,-12.88
25.8,-12.84
25.801,-12.83
25.804,-12.72
25.804,-12.72
25.807,-12.84
25.808,-12.86
25.811,-12.83
25.812,-12.82
25.814,-12.8
25.815,-12.79
25.818,-12.78
25.819,-12.76
25.821,-12.81
25.822,-12.85
25.825,-12.8
25.826,-12.82
25.828,-12.86
25.83,-12.88
25.831,-12.91
25.833,-12.89
25.835,-12.83
25.837,-12.81
25.838,-12.79
25.84,-12.78
25.842,-12.83
25.844,-12.9
25.845,-12.93
25.847,-12.96
25.849,-12.93
25.851,-12.86
25.852,-12.86
25.855,-12.85
25.856,-12.84
25.858,-12.8
25.859,-12.79
25.862,-12.86
25.863,-12.88
25.865,-12.93
25.866,-12.93
25.869,-12.92
25.87,-12.92
25.873,-12.85
25.873,-12.83
25.876,-12.77
25.877,-12.78
25.88,-12.86
25.88,-12.86
25.883,-12.87
25.884,-12.87
25.887,-12.88
25.887,-12.88
25.89,-12.82
25.891,-12.82
25.894,-12.84
25.894,-12.84
25.898,-12.79
25.898,-12.79
25.901,-12.82
25.901,-12.82
25.905,-12.89
25.905,-12.89
25.908,-12.86
25.908,-12.85
25.912,-12.81
25.912,-12.8
25.915,-12.69
25.916,-12.67
25.918,-12.71
25.919,-12.72
25.922,-12.75
25.923,-12.76
25.925,-12.79
25.926,-12.78
25.929,-12.75
25.93,-12.75
25.932,-12.73
25.933,-12.73
25.936,-12.74
25.937,-12.71
25.939,-12.65
25.941,-12.65
25.943,-12.7
25.944,-12.73
25.946,-12.74
25.948,-12.72
25.95,-12.73
25.951,-12.78
25.953,-12.84
25.955,-12.87
25.957,-12.85
25.959,-12.79
25.96,-12.8
25.962,-12.82
25.964,-12.83
25.966,-12.87
25.967,-12.86
25.969,-12.86
25.971,-12.89
25.973,-12.92
25.974,-12.92
25.977,-12.92
25.978,-12.9
25.98,-12.87
25.981,-12.86
25.984,-12.82
25.985,-12.81
25.987,-12.85
25.988,-12.86
25.991,-12.88
25.992,-12.87
25.994,-12.86
25.995,-12.86
25.998,-12.84
25.999,-12.83
26.002,-12.79
26.002,-12.78
26.005,-12.76
26.005,-12.76
26.009,-12.79
26.009,-12.79
26.012,-12.76
26.016,-12.8
26.016,-12.8
26.019,-12.81
26.02,-12.81
26.023,-12.76
26.023,-12.76
26.026,-12.83
26.027,-12.83
26.03,-12.84
26.03,-12.84
26.033,-12.79
26.037,-12.77
26.037,-12.76
26.04,-12.78
26.041,-12.78
26.044,-12.79
26.045,-12.78
26.047,-12.78
26.048,-12.79
26.051,-12.82
26.052,-12.84
26.054,-12.8
26.055,-12.79
26.058,-12.79
26.059,-12.8
26.061,-12.81
26.063,-12.81
26.065,-12.82
26.066,-12.85
26.068,-12.87
26.07,-12.85
26.072,-12.83
26.073,-12.79
26.075,-12.77
26.077,-12.78
26.079,-12.8
26.08,-12.78
26.082,-12.78
26.084,-12.79
26.086,-12.78
26.088,-12.76
26.089,-12.79
26.091,-12.88
26.092,-12.9
26.095,-12.84
26.096,-12.81
26.098,-12.79
26.099,-12.81
26.102,-12.79
26.103,-12.77
26.106,-12.7
26.106,-12.69
26.109,-12.72
26.113,-12.75
26.113,-12.77
26.116,-12.83
26.117,-12.82
26.12,-12.77
26.12,-12.78
26.123,-12.84
26.127,-12.76
26.127,-12.76
26.13,-12.81
26.131,-12.82
26.133,-12.87
26.136,-12.88
26.138,-12.86
26.138,-12.84
26.141,-12.79
26.141,-12.79
26.144,-12.8
26.145,-12.79
26.147,-12.76
26.15,-12.74
26.152,-12.7
26.153,-12.7
26.155,-12.81
26.155,-12.82
26.157,-12.85
26.158,-12.85
26.16,-12.84
26.161,-12.82
26.162,-12.78
26.164,-12.75
26.165,-12.75
26.167,-12.76
26.167,-12.76
26.17,-12.73
26.17,-12.72
26.172,-12.7
26.172,-12.7
26.175,-12.61
26.175,-12.61
26.178,-12.65
26.178,-12.65
26.18,-12.68
26.181,-12.69
26.183,-12.74
26.184,-12.7
26.185,-12.67
26.187,-12.68
26.188,-12.7
26.19,-12.7
26.192,-12.66
26.193,-12.64
26.195,-12.62
26.195,-12.61
26.198,-12.61
26.198,-12.61
26.2,-12.61
26.201,-12.62
26.203,-12.62
26.204,-12.62
26.205,-12.61
26.206,-12.6
26.209,-12.56
26.211,-12.57
26.212,-12.6
26.213,-12.62
26.215,-12.6
26.216,-12.59
26.218,-12.57
26.218,-12.57
26.22,-12.58
26.221,-12.58
26.223,-12.5
26.223,-12.5
26.226,-12.47
26.226,-12.48
26.228,-12.56
26.229,-12.57
26.231,-12.55
26.232,-12.53
26.233,-12.47
26.235,-12.46
26.236,-12.46
26.237,-12.42
26.239,-12.41
26.24,-12.44
26.241,-12.45
26.243,-12.47
26.244,-12.47
26.246,-12.42
26.246,-12.41
26.249,-12.36
26.249,-12.36
26.251,-12.37
26.252,-12.38
26.254,-12.45
26.254,-12.46
26.256,-12.48
26.257,-12.47
26.259,-12.44
26.26,-12.45
26.261,-12.47
26.263,-12.5
26.264,-12.51
26.266,-12.51
26.266,-12.51
26.269,-12.52
26.269,-12.52
26.271,-12.52
26.272,-12.52
26.274,-12.54
26.274,-12.55
26.277,-12.56
26.277,-12.56
26.279,-12.52
26.28,-12.52
26.282,-12.56
26.283,-12.55
26.284,-12.55
26.286,-12.57
26.287,-12.61
26.288,-12.63
26.289,-12.63
26.291,-12.64
26.292,-12.65
26.294,-12.66
26.294,-12.66
26.297,-12.71
26.297,-12.71
26.3,-12.68
26.3,-12.68
26.302,-12.71
26.303,-12.72
26.305,-12.73
26.305,-12.71
26.307,-12.66
26.308,-12.66
26.31,-12.69
26.311,-12.71
26.312,-12.73
26.314,-12.72
26.315,-12.71
26.317,-12.73
26.317,-12.74
26.32,-12.74
26.32,-12.74
26.322,-12.69
26.322,-12.69
26.325,-12.73
26.325,-12.73
26.327,-12.76
26.328,-12.78
26.33,-12.84
26.331,-12.85
26.333,-12.87
26.334,-12.86
26.335,-12.84
26.336,-12.83
26.338,-12.81
26.339,-12.8
26.34,-12.79
26.342,-12.74
26.343,-12.73
26.345,-12.71
26.345,-12.71
26.348,-12.72
26.348,-12.72
26.35,-12.7
26.351,-12.69
26.353,-12.6
26.353,-12.58
26.355,-12.53
26.356,-12.53
26.358,-12.53
26.359,-12.52
26.36,-12.51
26.362,-12.51
26.363,-12.52
26.365,-12.51
26.366,-12.51
26.368,-12.56
26.368,-12.55
26.37,-12.51
26.371,-12.51
26.373,-12.56
26.373,-12.56
26.376,-12.58
26.376,-12.57
26.378,-12.5
26.379,-12.5
26.381,-12.56
26.382,-12.57
26.383,-12.58
26.385,-12.59
26.386,-12.6
26.387,-12.61
26.388,-12.61
26.39,-12.6
26.391,-12.6
26.393,-12.62
26.394,-12.62
26.396,-12.67
26.396,-12.68
26.399,-12.72
26.399,-12.72
26.401,-12.75
26.402,-12.75
26.404,-12.71
26.404,-12.72
26.406,-12.72
26.407,-12.68
26.409,-12.63
26.41,-12.67
26.411,-12.68
26.413,-12.61
26.414,-12.58
26.416,-12.54
26.416,-12.52
26.419,-12.5
26.419,-12.48
26.421,-12.4
26.421,-12.4
26.424,-12.34
26.424,-12.34
26.427,-12.3
26.427,-12.29
26.429,-12.25
26.43,-12.25
26.432,-12.27
26.433,-12.25
26.434,-12.22
26.436,-12.24
26.437,-12.27
26.438,-12.28
26.439,-12.28
26.441,-12.3
26.442,-12.32
26.444,-12.37
26.444,-12.38
26.447,-12.38
26.447,-12.38
26.449,-12.39
26.45,-12.4
26.452,-12.45
26.453,-12.46
26.455,-12.47
26.455,-12.48
26.457,-12.48
26.458,-12.46
26.46,-12.43
26.461,-12.42
26.462,-12.43
26.464,-12.45
26.465,-12.46
26.467,-12.44
26.467,-12.43
26.469,-12.43
26.47,-12.43
26.472,-12.43
26.472,-12.43
26.475,-12.39
26.475,-12.39
26.477,-12.33
26.478,-12.32
26.48,-12.31
26.481,-12.35
26.482,-12.42
26.484,-12.42
26.485,-12.39
26.486,-12.38
26.488,-12.36
26.489,-12.34
26.49,-12.33
26.492,-12.31
26.493,-12.31
26.495,-12.39
26.495,-12.39
26.498,-12.41
26.498,-12.41
26.5,-12.4
26.501,-12.4
26.503,-12.4
26.503,-12.39
26.505,-12.36
26.506,-12.34
26.508,-12.34
26.509,-12.35
26.51,-12.37
26.512,-12.41
26.513,-12.42
26.515,-12.41
26.515,-12.41
26.518,-12.45
26.518,-12.44
26.52,-12.33
26.521,-12.33
26.523,-12.29
26.523,-12.29
26.526,-12.29
26.526,-12.29
26.528,-12.32
26.529,-12.34
26.531,-12.37
26.532,-12.37
26.533,-12.38
26.535,-12.36
26.536,-12.31
26.537,-12.32
26.538,-12.33
26.54,-12.32
26.541,-12.32
26.543,-12.4
26.543,-12.41
26.546,-12.39
26.546,-12.4
26.549,-12.44
26.549,-12.45
26.551,-12.47
26.552,-12.46
26.554,-12.31
26.554,-12.31
26.556,-12.36
26.557,-12.39
26.559,-12.41
26.56,-12.38
26.561,-12.39
26.563,-12.43
26.564,-12.44
26.566,-12.45
26.566,-12.46
26.569,-12.45
26.569,-12.46
26.571,-12.56
26.571,-12.56
26.574,-12.52
26.574,-12.51
26.576,-12.42
26.577,-12.43
26.579,-12.48
26.58,-12.47
26.582,-12.42
26.583,-12.42
26.584,-12.43
26.586,-12.45
26.587,-12.47
26.588,-12.44
26.589,-12.43
26.591,-12.42
26.592,-12.43
26.594,-12.44
26.594,-12.45
26.597,-12.54
26.597,-12.54
26.599,-12.5
26.6,-12.5
26.602,-12.54
26.602,-12.53
26.604,-12.47
26.605,-12.45
26.607,-12.43
26.608,-12.44
26.61,-12.47
26.611,-12.46
26.612,-12.44
26.614,-12.44
26.615,-12.44
26.617,-12.46
26.617,-12.46
26.619,-12.43
26.62,-12.43
26.622,-12.44
26.622,-12.44
26.625,-12.5
26.626,-12.51
26.628,-12.52
26.63,-12.49
26.631,-12.49
26.634,-12.46
26.634,-12.46
26.636,-12.44
26.637,-12.42
26.639,-12.43
26.641,-12.45
26.642,-12.46
26.645,-12.48
26.645,-12.48
26.648,-12.47
26.649,-12.46
26.651,-12.44
26.653,-12.46
26.654,-12.45
26.656,-12.41
26.657,-12.41
26.66,-12.44
26.66,-12.44
26.663,-12.42
26.664,-12.42
26.666,-12.44
26.668,-12.45
26.669,-12.44
26.671,-12.4
26.672,-12.39
26.675,-12.35
26.675,-12.35
26.678,-12.34
26.679,-12.35
26.681,-12.37
26.683,-12.39
26.684,-12.39
26.687,-12.41
26.687,-12.41
26.69,-12.4
26.69,-12.4
26.693,-12.33
26.694,-12.32
26.696,-12.34
26.698,-12.36
26.699,-12.39
26.702,-12.43
26.702,-12.43
26.705,-12.46
26.706,-12.46
26.708,-12.45
26.709,-12.45
26.711,-12.37
26.713,-12.33
26.714,-12.34
26.717,-12.38
26.718,-12.39
26.721,-12.48
26.721,-12.47
26.724,-12.4
26.725,-12.4
26.727,-12.34
26.728,-12.34
26.73,-12.38
26.732,-12.44
26.733,-12.44
26.736,-12.39
26.736,-12.39
26.739,-12.42
26.74,-12.42
26.742,-12.39
26.743,-12.37
26.745,-12.37
26.748,-12.32
26.751,-12.3
26.754,-12.25
26.755,-12.24
26.757,-12.23
26.759,-12.25
26.76,-12.24
26.762,-12.2
26.763,-12.2
26.766,-12.25
26.766,-12.25
26.772,-12.24
26.774,-12.26
26.775,-12.29
26.778,-12.31
26.778,-12.31
26.781,-12.33
26.781,-12.34
26.784,-12.37
26.785,-12.38
26.787,-12.34
26.789,-12.31
26.793,-12.35
26.793,-12.35
26.796,-12.26
26.799,-12.23
26.8,-12.22
26.803,-12.15
26.804,-12.09
26.806,-12.05
26.808,-12.03
26.809,-12.02
26.812,-12.01
26.812,-12.01
26.815,-12.04
26.815,-12.04
26.818,-12.05
26.819,-12.06
26.821,-12.08
26.823,-12.08
26.824,-12.09
26.827,-12.17
26.827,-12.17
26.83,-12.14
26.831,-12.14
26.833,-12.18
26.834,-12.22
26.836,-12.23
26.838,-12.23
26.839,-12.24
26.842,-12.23
26.842,-12.23
26.845,-12.16
26.846,-12.15
26.848,-12.18
26.85,-12.19
26.851,-12.23
26.853,-12.29
26.854,-12.31
26.857,-12.29
26.857,-12.29
26.86,-12.18
26.861,-12.17
26.863,-12.2
26.865,-12.25
26.866,-12.32
26.868,-12.39
26.869,-12.39
26.872,-12.33
26.872,-12.33
26.875,-12.38
26.876,-12.39
26.878,-12.39
26.88,-12.36
26.881,-12.31
26.884,-12.24
26.884,-12.24
26.887,-12.2
26.888,-12.2
26.891,-12.28
26.891,-12.29
26.894,-12.31
26.895,-12.32
26.897,-12.28
26.899,-12.22
26.9,-12.23
26.903,-12.28
26.903,-12.28
26.906,-12.29
26.906,-12.31
26.909,-12.32
26.91,-12.3
26.912,-12.27
26.914,-12.23
26.915,-12.21
26.918,-12.16
26.918,-12.16
26.921,-12.11
26.922,-12.11
26.924,-12.13
26.925,-12.15
26.927,-12.17
26.929,-12.19
26.93,-12.2
26.933,-12.17
26.933,-12.17
26.936,-12.16
26.937,-12.15
26.939,-12.09
26.94,-12.1
26.942,-12.15
26.944,-12.17
26.945,-12.16
26.948,-12.13
26.948,-12.13
26.951,-12.17
26.952,-12.17
26.954,-12.22
26.956,-12.24
26.957,-12.22
26.959,-12.15
26.96,-12.15
26.963,-12.21
26.963,-12.21
26.966,-12.32
26.967,-12.33
26.969,-12.34
26.971,-12.33
26.973,-12.29
26.975,-12.24
26.976,-12.24
26.978,-12.24
26.979,-12.24
26.982,-12.19
26.982,-12.19
26.985,-12.24
26.986,-12.25
26.988,-12.21
26.99,-12.14
26.991,-12.13
26.993,-12.16
26.994,-12.16
26.997,-12.16
26.997,-12.16
27.0,-12.16
27.001,-12.16
27.003,-12.17
27.005,-12.2
27.006,-12.19
27.009,-12.13
27.009,-12.14
27.012,-12.19
27.012,-12.2
27.015,-12.28
27.016,-12.31
27.018,-12.33
27.02,-12.3
27.021,-12.28
27.024,-12.27
27.024,-12.27
27.027,-12.25
27.028,-12.24
27.03,-12.22
27.031,-12.21
27.033,-12.22
27.035,-12.24
27.036,-12.25
27.039,-12.29
27.039,-12.3
27.042,-12.32
27.043,-12.32
27.045,-12.3
27.047,-12.29
27.048,-12.31
27.05,-12.3
27.051,-12.27
27.054,-12.18
27.054,-12.17
27.058,-12.17
27.058,-12.17
27.061,-12.14
27.062,-12.14
27.064,-12.17
27.065,-12.16
27.067,-12.13
27.069,-12.13
27.07,-12.13
27.073,-12.15
27.073,-12.16
27.076,-12.19
27.077,-12.19
27.079,-12.22
27.081,-12.24
27.082,-12.22
27.084,-12.22
27.085,-12.22
27.088,-12.2
27.088,-12.19
27.091,-12.16
27.092,-12.16
27.094,-12.18
27.096,-12.15
27.097,-12.13
27.1,-12.06
27.1,-12.06
27.103,-12.17
27.103,-12.18
27.106,-12.29
27.107,-12.3
27.109,-12.31
27.111,-12.27
27.112,-12.25
27.115,-12.28
27.115,-12.28
27.118,-12.23
27.119,-12.23
27.121,-12.24
27.122,-12.23
27.126,-12.18
27.126,-12.18
27.13,-12.23
27.131,-12.23
27.134,-12.22
27.136,-12.26
27.137,-12.28
27.141,-12.26
27.142,-12.26
27.145,-12.26
27.147,-12.25
27.149,-12.19
27.152,-12.17
27.153,-12.17
27.156,-12.16
27.157,-12.16
27.16,-12.15
27.162,-12.17
27.164,-12.19
27.167,-12.12
27.168,-12.09
27.172,-12.05
27.172,-12.05
27.175,-12.11
27.177,-12.09
27.179,-12.05
27.182,-11.98
27.183,-11.99
27.187,-12.2
27.187,-12.2
27.19,-12.23
27.192,-12.21
27.194,-12.16
27.197,-12.04
27.198,-12.01
27.202,-12.11
27.202,-12.1
27.206,-11.98
27.207,-12.0
27.209,-12.07
27.212,-12.06
27.214,-12.04
27.217,-12.05
27.219,-12.08
27.222,-12.13
27.223,-12.16
27.227,-12.26
27.228,-12.29
27.232,-12.28
27.233,-12.26
27.237,-12.15
27.238,-12.13
27.242,-12.1
27.242,-12.1
27.247,-12.09
27.247,-12.09
27.252,-12.11
27.252,-12.11
27.256,-12.16
27.257,-12.15
27.261,-11.96
27.262,-11.92
27.266,-11.97
27.267,-12.03
27.27,-12.12
27.272,-12.1
27.275,-12.08
27.277,-12.07
27.28,-12.05
27.282,-12.09
27.284,-12.13
27.287,-12.12
27.289,-12.11
27.292,-12.11
27.294,-12.14
27.297,-12.17
27.298,-12.18
27.302,-12.25
27.303,-12.25
27.307,-12.25
27.308,-12.25
27.312,-12.26
27.312,-12.26
27.317,-12.3
27.317,-12.31
27.322,-12.32
27.322,-12.32
27.327,-12.32
27.327,-12.32
27.331,-12.34
27.332,-12.35
27.336,-12.36
27.337,-12.29
27.341,-12.07
27.342,-12.13
27.345,-12.23
27.347,-12.22
27.35,-12.2
27.352,-12.22
27.355,-12.24
27.357,-12.25
27.359,-12.26
27.362,-12.26
27.364,-12.28
27.367,-12.3
27.369,-12.29
27.372,-12.34
27.373,-12.37
27.377,-12.46
27.378,-12.47
27.382,-12.41
27.383,-12.4
27.387,-12.27
27.387,-12.26
27.392,-12.47
27.392,-12.48
27.397,-12.49
27.397,-12.49
27.401,-12.45
27.405,-12.4
27.406,-12.37
27.411,-12.33
27.412,-12.33
27.415,-12.32
27.419,-12.31
27.42,-12.31
27.425,-12.33
27.426,-12.33
27.43,-12.3
27.433,-12.28
27.434,-12.28
27.439,-12.32
27.44,-12.31
27.444,-12.28
27.447,-12.35
27.448,-12.38
27.453,-12.45
27.454,-12.43
27.458,-12.34
27.461,-12.48
27.462,-12.5
27.467,-12.42
27.468,-12.41
27.472,-12.43
27.475,-12.46
27.478,-12.44
27.482,-12.39
27.483,-12.38
27.488,-12.41
27.489,-12.39
27.493,-12.33
27.496,-12.3
27.499,-12.29
27.503,-12.27
27.504,-12.28
27.509,-12.34
27.511,-12.35
27.514,-12.45
27.518,-12.47
27.52,-12.41
27.525,-12.45
27.525,-12.45
27.53,-12.38
27.532,-12.39
27.535,-12.4
27.539,-12.37
27.541,-12.33
27.546,-12.27
27.546,-12.27
27.551,-12.19
27.553,-12.22
27.557,-12.33
27.56,-12.24
27.562,-12.21
27.567,-12.3
27.567,-12.3
27.572,-12.36
27.574,-12.35
27.578,-12.33
27.581,-12.27
27.583,-12.23
27.588,-12.24
27.588,-12.24
27.593,-12.36
27.595,-12.4
27.599,-12.41
27.602,-12.41
27.604,-12.42
27.609,-12.39
27.614,-12.58
27.617,-12.58
27.62,-12.5
27.624,-12.48
27.63,-12.59
27.631,-12.58
27.636,-12.42
27.638,-12.42
27.641,-12.35
27.645,-12.16
27.646,-12.1
27.651,-11.75
27.652,-11.73
27.657,-11.63
27.659,-11.62
27.662,-11.64
27.666,-11.71
27.667,-11.71
27.672,-11.59
27.673,-11.57
27.678,-11.47
27.68,-11.47
27.683,-11.5
27.687,-11.55
27.688,-11.56
27.693,-11.58
27.694,-11.58
27.699,-11.57
27.701,-11.55
27.704,-11.53
27.708,-11.58
27.709,-11.59
27.715,-11.6
27.716,-11.59
27.72,-11.63
27.723,-11.67
27.725,-11.71
27.73,-11.82
27.73,-11.83
27.736,-11.84
27.737,-11.85
27.741,-11.9
27.744,-11.89
27.746,-11.9
27.751,-11.98
27.758,-12.05
27.762,-12.09
27.765,-12.11
27.772,-12.1
27.777,-12.14
27.788,-12.23
27.793,-12.26
27.804,-12.32
27.809,-12.35
27.819,-12.44
27.824,-12.47
27.835,-12.31
27.84,-12.25
27.85,-12.35
27.855,-12.3
27.865,-12.04
27.871,-12.01
27.881,-12.12
27.887,-12.11
27.896,-12.0
27.902,-12.01
27.912,-12.13
27.918,-12.16
27.927,-12.15
27.934,-12.21
27.942,-12.22
27.949,-12.2
27.958,-12.22
27.965,-12.19
27.973,-12.18
27.98,-12.2
27.989,-12.16
27.996,-12.14
28.004,-12.23
28.012,-12.25
28.019,-12.2
28.027,-12.24
28.035,-12.32
28.043,-12.34
28.05,-12.31
28.058,-12.33
28.066,-12.39
28.074,-12.43
28.081,-12.37
28.09,-12.34
28.096,-12.34
28.105,-12.23
28.112,-12.19
28.121,-12.14
28.127,-12.06
28.137,-11.99
28.143,-11.99
28.152,-11.91
28.158,-11.91
28.168,-11.99
28.173,-12.0
28.183,-12.13
28.189,-12.16
28.199,-12.19
28.204,-12.21
28.215,-12.2
28.22,-12.19
28.23,-12.18
28.235,-12.19
28.246,-12.21
28.25,-12.19
28.261,-12.19
28.266,-12.19
28.277,-12.15
28.281,-12.17
28.293,-12.23
28.297,-12.25
28.308,-12.41
28.312,-12.41
28.324,-12.45
28.327,-12.46
28.343,-12.36
28.355,-12.3
28.371,-12.41
28.374,-12.41
28.386,-12.56
28.389,-12.56
28.402,-12.51
28.404,-12.51
28.418,-12.38
28.42,-12.37
28.433,-12.37
28.435,-12.36
28.449,-12.35
28.451,-12.35
28.464,-12.24
28.466,-12.23
28.48,-12.14
28.481,-12.13
28.496,-12.11
28.497,-12.11
28.511,-12.19
28.512,-12.19
28.527,-12.25
28.528,-12.26
28.542,-12.23
28.543,-12.23
28.558,-12.29
28.558,-12.29
28.574,-12.42
28.574,-12.42
28.589,-12.28
28.589,-12.28
28.605,-12.14
28.605,-12.14
28.62,-12.11
28.621,-12.11
28.63,-12.14
28.636,-12.14
28.639,-12.19
28.64,-12.2
28.643,-12.21
28.656,-12.17
28.665,-12.15
28.669,-12.15
28.689,-12.17
28.698,-12.25
28.708,-12.21
28.716,-12.28
28.716,-12.3
28.717,-12.28
28.718,-12.26
28.718,-12.26
28.721,-12.15
28.721,-12.15
28.722,-12.17
28.723,-12.16
28.725,-12.04
28.725,-11.99
28.727,-11.9
28.728,-11.94
28.729,-12.04
28.729,-12.0
28.729,-11.99
28.73,-11.96
28.73,-11.95
28.73,-11.95
28.731,-11.94
28.731,-11.96
28.731,-11.98
28.732,-12.05
28.732,-12.06
28.733,-12.08
28.736,-11.79
28.736,-11.75
28.736,-11.74
28.737,-11.81
28.74,-12.04
28.741,-11.78
28.744,-11.85
28.745,-11.89
28.747,-11.78
28.747,-11.69
28.747,-11.67
28.747,-11.65
28.747,-11.64
28.747,-11.62
28.747,-11.61
28.747,-11.59
28.747,-11.58
28.747,-11.54
28.747,-11.53
28.747,-11.51
28.748,-11.48
28.748,-11.47
28.748,-11.46
28.748,-11.46
28.748,-11.45
28.748,-11.45
28.748,-11.45
28.748,-11.45
28.748,-11.44
28.748,-11.44
28.748,-11.44
28.748,-11.44
28.748,-11.43
28.748,-11.43
28.748,-11.43
28.748,-11.43
28.748,-11.42
28.748,-11.42
28.748,-11.42
28.748,-11.42
28.748,-11.41
28.748,-11.41
28.748,-11.41
28.748,-11.4
28.748,-11.4
28.748,-11.4
28.748,-11.4
28.748,-11.4
28.748,-11.39
28.749,-11.39
28.749,-11.39
28.749,-11.39
28.749,-11.39
28.749,-11.4
28.749,-11.4
28.749,-11.4
28.749,-11.41
28.75,-11.51
28.753,-11.58
28.753,-11.57
28.756,-11.46
28.756,-11.45
28.758,-11.4
28.76,-11.46
28.763,-11.5
28.764,-11.43
28.766,-11.26
28.768,-11.34
28.769,-11.33
28.77,-11.19
28.771,-11.13
28.771,-11.1
28.773,-11.18
28.775,-11.24
28.775,-11.26
28.776,-11.29
28.777,-11.19
28.778,-11.17
28.779,-11.2
28.782,-11.39
28.783,-11.4
28.783,-11.39
28.783,-11.37
28.784,-11.35
28.785,-11.35
28.785,-11.36
28.787,-11.34
28.788,-11.22
28.789,-11.16
28.79,-11.08
28.793,-11.08
28.794,-11.12
28.798,-11.29
28.798,-11.29
28.798,-11.3
28.799,-11.3
28.8,-11.31
28.8,-11.32
28.801,-11.32
28.802,-11.35
28.803,-11.39
28.805,-11.43
28.806,-11.44
28.809,-11.47
28.813,-11.36
28.817,-11.31
28.821,-11.3
28.825,-11.24
28.828,-11.16
28.828,-11.16
28.831,-11.1
28.832,-11.12
28.833,-11.13
28.835,-11.21
28.836,-11.23
28.837,-11.24
28.84,-11.29
28.84,-11.29
28.842,-11.3
28.843,-11.26
28.844,-11.24
28.847,-11.21
28.849,-11.22
28.851,-11.2
28.851,-11.2
28.853,-11.16
28.855,-11.2
28.856,-11.2
28.858,-11.13
28.859,-11.09
28.86,-11.01
28.862,-10.91
28.863,-10.91
28.866,-11.02
28.867,-11.06
28.869,-11.18
28.87,-11.17
28.872,-11.06
28.874,-10.92
28.874,-10.92
28.876,-10.94
28.878,-11.0
28.878,-11.07
28.881,-11.07
28.881,-11.07
28.883,-11.03
28.885,-11.07
28.885,-11.07
28.888,-11.16
28.889,-11.26
28.89,-11.27
28.892,-11.13
28.893,-11.1
28.894,-11.07
28.896,-11.06
28.897,-11.06
28.899,-11.03
28.9,-11.01
28.901,-10.99
28.904,-10.99
28.904,-10.99
28.906,-10.97
28.908,-11.0
28.908,-11.01
28.91,-10.98
28.912,-10.99
28.913,-10.99
28.915,-10.94
28.915,-10.93
28.917,-10.92
28.919,-10.93
28.919,-10.93
28.922,-10.91
28.923,-10.89
28.927,-10.95
28.929,-10.94
28.931,-10.9
28.931,-10.9
28.933,-10.96
28.934,-11.01
28.935,-11.05
28.938,-11.14
28.938,-11.12
28.94,-11.1
28.942,-11.12
28.942,-11.12
28.944,-11.03
28.947,-10.93
28.949,-10.85
28.951,-10.75
28.953,-10.71
28.954,-10.71
28.956,-10.68
28.957,-10.68
28.959,-10.77
28.96,-10.8
28.961,-10.86
28.962,-10.92
28.965,-11.02
28.965,-11.05
28.968,-11.19
28.968,-11.19
28.971,-11.14
28.972,-11.13
28.975,-11.16
28.976,-11.16
28.978,-11.11
28.98,-11.04
28.981,-11.02
28.984,-10.95
28.984,-10.94
28.987,-10.92
28.987,-10.91
28.99,-10.84
28.991,-10.8
28.993,-10.8
28.995,-10.8
28.996,-10.8
28.999,-10.79
28.999,-10.78
29.002,-10.78
29.003,-10.78
29.003,-10.79
29.004,-10.8
29.004,-10.87
29.005,-10.91
29.005,-10.92
29.005,-10.92
29.006,-10.92
29.007,-10.91
29.007,-10.94
29.008,-10.98
29.008,-10.97
29.008,-10.97
29.009,-10.98
29.009,-11.02
29.01,-11.01
29.01,-10.95
29.011,-10.95
29.011,-10.97
29.012,-10.97
29.012,-10.93
29.013,-10.91
29.013,-10.95
29.014,-10.96
29.014,-10.94
29.015,-10.94
29.015,-10.96
29.016,-11.01
29.016,-10.97
29.017,-10.94
29.017,-10.95
29.018,-10.95
29.018,-10.96
29.018,-10.97
29.019,-10.99
29.02,-11.0
29.02,-11.01
29.021,-11.02
29.021,-11.03
29.021,-11.09
29.022,-11.15
29.022,-11.19
29.023,-11.21
29.023,-11.22
29.024,-11.22
29.024,-11.23
29.025,-11.25
29.025,-11.29
29.026,-11.29
29.026,-11.16
29.027,-11.13
29.027,-11.13
29.027,-11.23
29.028,-11.22
29.029,-11.18
29.029,-11.14
29.03,-11.1
29.033,-11.07
29.036,-11.02
29.036,-11.02
29.039,-11.07
29.042,-11.11
29.042,-11.12
29.045,-11.14
29.048,-11.17
29.049,-11.18
29.051,-11.23
29.055,-11.29
29.055,-11.31
29.058,-11.34
29.061,-11.39
29.062,-11.42
29.064,-11.45
29.067,-11.5
29.069,-11.52
29.07,-11.51
29.073,-11.48
29.075,-11.45
29.076,-11.44
29.079,-11.48
29.082,-11.51
29.085,-11.52
29.088,-11.45
29.088,-11.45
29.091,-11.45
29.094,-11.51
29.098,-11.46
29.1,-11.42
29.102,-11.4
29.108,-11.42
29.111,-11.38
29.115,-11.41
29.117,-11.44
29.121,-11.51
29.123,-11.53
29.128,-11.66
29.129,-11.67
29.134,-11.69
29.135,-11.69
29.14,-11.78
29.141,-11.77
29.146,-11.7
29.148,-11.7
29.154,-11.66
29.158,-11.66
29.161,-11.65
29.167,-11.6
29.17,-11.6
29.174,-11.65
29.176,-11.67
29.181,-11.67
29.182,-11.68
29.187,-11.75
29.188,-11.75
29.194,-11.74
29.194,-11.74
29.2,-11.76
29.206,-11.84
29.212,-11.84
29.213,-11.83
29.218,-11.83
29.22,-11.85
29.224,-11.88
29.227,-11.88
29.23,-11.79
29.233,-11.71
29.235,-11.72
29.24,-11.78
29.241,-11.77
29.246,-11.75
29.247,-11.74
29.253,-11.6
29.253,-11.6
29.26,-11.6
29.266,-11.75
29.271,-11.68
29.273,-11.66
29.277,-11.7
29.279,-11.73
29.283,-11.75
29.286,-11.69
29.289,-11.67
29.293,-11.73
29.295,-11.78
29.299,-11.79
29.301,-11.75
29.306,-11.61
29.307,-11.62
29.312,-11.7
29.313,-11.7
29.319,-11.71
29.319,-11.71
29.325,-11.74
29.325,-11.76
29.33,-11.75
29.332,-11.75
29.336,-11.72
29.339,-11.74
29.342,-11.79
29.345,-11.84
29.348,-11.93
29.352,-11.96
29.354,-11.86
29.358,-11.77
29.36,-11.78
29.365,-11.69
29.366,-11.69
29.372,-11.89
29.372,-11.88
29.378,-11.75
29.378,-11.75
29.384,-11.64
29.389,-11.58
29.39,-11.58
29.396,-11.64
29.4,-11.5
29.402,-11.47
29.408,-11.53
29.411,-11.63
29.414,-11.71
29.419,-11.63
29.421,-11.61
29.43,-11.43
29.432,-11.41
29.44,-11.42
29.443,-11.51
29.449,-11.64
29.454,-11.69
29.459,-11.69
29.465,-11.62
29.469,-11.68
29.476,-11.84
29.479,-11.88
29.486,-11.92
29.489,-11.92
29.497,-11.85
29.499,-11.82
29.508,-11.83
29.508,-11.84
29.518,-11.93
29.519,-11.93
29.528,-11.94
29.53,-11.92
29.538,-11.77
29.54,-11.77
29.548,-11.89
29.551,-11.94
29.558,-12.0
29.562,-12.02
29.568,-11.98
29.573,-12.02
29.577,-12.02
29.584,-12.01
29.587,-12.06
29.595,-12.06
29.597,-12.05
29.605,-11.95
29.607,-11.95
29.616,-12.07
29.617,-12.07
29.627,-12.02
29.627,-12.02
29.636,-12.14
29.638,-12.14
29.646,-12.1
29.649,-12.11
29.656,-12.06
29.66,-12.03
29.666,-12.22
29.67,-12.31
29.676,-12.26
29.681,-12.39
29.686,-12.49
29.692,-12.45
29.696,-12.44
29.703,-12.39
29.705,-12.34
29.714,-12.23
29.715,-12.22
29.725,-12.1
29.725,-12.1
29.735,-12.15
29.735,-12.15
29.745,-12.22
29.746,-12.23
29.755,-12.19
29.757,-12.16
29.764,-12.15
29.768,-12.19
29.774,-12.19
29.779,-12.15
29.784,-12.12
29.789,-12.12
29.794,-12.08
29.8,-12.0
29.804,-11.99
29.811,-12.05
29.814,-12.03
29.822,-11.82
29.824,-11.77
29.833,-11.44
29.833,-11.43
29.843,-11.47
29.844,-11.47
29.853,-11.8
29.854,-11.81
29.863,-11.63
29.865,-11.62
29.873,-11.75
29.876,-11.78
29.883,-11.81
29.887,-11.75
29.892,-11.59
29.898,-11.51
29.902,-11.51
29.909,-11.51
